Time,Channel B
(ns),(mV)

-100.99999470,-9.81237700
-100.49999472,-9.82344900
-99.99999473,-9.77423700
-99.49999474,-9.67704200
-98.99999476,-9.56446800
-98.49999477,-9.43466900
-97.99999479,-9.54170700
-97.49999480,-9.87696700
-96.99999481,-10.03629000
-96.49999483,-10.00308000
-95.99999484,-9.99753900
-95.49999486,-10.00861000
-94.99999487,-9.95939900
-94.49999488,-9.86220500
-93.99999490,-9.75516700
-93.49999491,-9.64689900
-92.99999493,-9.65243500
-92.49999494,-9.78223300
-91.99999496,-9.78223300
-91.49999497,-9.65243500
-90.99999498,-9.64689900
-90.49999500,-9.75516700
-89.99999501,-9.86774200
-89.49999503,-9.98646600
-88.99999504,-9.93171700
-88.49999505,-9.70472400
-87.99999507,-9.59461100
-87.49999508,-9.60568300
-86.99999510,-9.66043300
-86.49999511,-9.75762700
-85.99999513,-9.86220500
-85.49999514,-9.95939900
-84.99999515,-10.01415000
-84.49999517,-10.02522000
-83.99999518,-9.91510800
-83.49999520,-9.68811500
-82.99999521,-9.63582600
-82.49999522,-9.76562400
-81.99999524,-9.82344900
-81.49999525,-9.81237700
-80.99999527,-9.80745600
-80.49999528,-9.79638200
-79.99999529,-9.85420700
-79.49999531,-9.98400600
-78.99999532,-9.93171700
-78.49999534,-9.70472400
-77.99999535,-9.59215000
-77.49999537,-9.59215000
-76.99999538,-9.70718500
-76.49999539,-9.94525100
-75.99999541,-9.94279000
-75.49999542,-9.69365100
-74.99999544,-9.63336600
-74.49999545,-9.75209100
-73.99999546,-9.86466500
-73.49999548,-9.97293300
-72.99999549,-9.97293300
-72.49999551,-9.86466500
-71.99999552,-9.75209100
-71.49999554,-9.63336600
-70.99999555,-9.68811500
-70.49999556,-9.91510800
-69.99999558,-10.02522000
-69.49999559,-10.01415000
-68.99999561,-9.95939900
-68.49999562,-9.86220500
-67.99999563,-9.75516700
-67.49999565,-9.64689900
-66.99999566,-9.64689900
-66.49999568,-9.75516700
-65.99999569,-9.86774200
-65.49999571,-9.98646600
-64.99999572,-9.92864100
-64.49999573,-9.69119100
-63.99999575,-9.63582600
-63.49999576,-9.76562400
-62.99999578,-9.82652600
-62.49999579,-9.82652600
-61.99999580,-9.76562400
-61.49999582,-9.63582600
-60.99999583,-9.69119100
-60.49999585,-9.92864100
-59.99999586,-9.98400600
-59.49999587,-9.85420700
-58.99999589,-9.79084600
-58.49999590,-9.77977300
-57.99999592,-9.88988600
-57.49999593,-10.11688000
-56.99999595,-10.17163000
-56.49999596,-10.05290000
-55.99999597,-9.94279000
-55.49999599,-9.84559500
-54.99999600,-9.79884200
-54.49999602,-9.82098900
-53.99999603,-9.77116100
-53.49999604,-9.66350800
-52.99999606,-9.61122000
-52.49999607,-9.62229300
-51.99999609,-9.61921700
-51.49999610,-9.59768700
-50.99999612,-9.70164800
-50.49999613,-9.91818300
-49.99999614,-10.02768000
-49.49999616,-10.02768000
-48.99999617,-9.91264700
-48.49999619,-9.67458200
-47.99999620,-9.67704200
-47.49999621,-9.92618100
-46.99999623,-9.98400600
-46.49999624,-9.85420700
-45.99999626,-9.79330700
-45.49999627,-9.79330700
-44.99999628,-9.85420700
-44.49999630,-9.98400600
-43.99999631,-9.93417800
-43.49999633,-9.71825700
-42.99999634,-9.55032000
-42.49999636,-9.43159500
-41.99999637,-9.54170700
-41.49999638,-9.87696700
-40.99999640,-10.03629000
-40.49999641,-10.00308000
-39.99999643,-9.99261800
-39.49999644,-9.98154500
-38.99999645,-10.03629000
-38.49999647,-10.15563000
-37.99999648,-10.15563000
-37.49999650,-10.03629000
-36.99999651,-9.98708100
-36.49999653,-10.01968000
-35.99999654,-9.91264700
-35.49999655,-9.67458200
-34.99999657,-9.67150600
-34.49999658,-9.89849900
-33.99999660,-10.06644000
-33.49999661,-10.17470000
-32.99999662,-10.11688000
-32.49999664,-9.88988600
-31.99999665,-9.78284900
-31.49999667,-9.80437900
-30.99999668,-9.81237700
-30.49999669,-9.82344900
-29.99999671,-9.76562400
-29.49999672,-9.63582600
-28.99999674,-9.69672700
-28.49999675,-9.95632300
-27.99999677,-9.90403500
-27.49999678,-9.54724300
-26.99999679,-9.43466900
-26.49999681,-9.56446800
-25.99999682,-9.67396600
-25.49999684,-9.76070300
-24.99999685,-9.86220500
-24.49999686,-9.95939900
-23.99999688,-10.00861000
-23.49999689,-9.99753900
-22.99999691,-9.99507800
-22.49999692,-9.99507800
-21.99999694,-9.99507800
-21.49999695,-9.99507800
-20.99999696,-9.99753900
-20.49999698,-10.00861000
-19.99999699,-9.95939900
-19.49999701,-9.86220500
-18.99999702,-9.75209100
-18.49999703,-9.63336600
-17.99999705,-9.69119100
-17.49999706,-9.92864100
-16.99999708,-9.98400600
-16.49999709,-9.85420700
-15.99999710,-9.79638200
-15.49999712,-9.80745600
-14.99999713,-9.80991600
-14.49999715,-9.80991600
-13.99999716,-9.80745600
-13.49999718,-9.79638200
-12.99999719,-9.85113100
-12.49999720,-9.97047100
-11.99999722,-9.97047100
-11.49999723,-9.85113100
-10.99999725,-9.79084600
-10.49999726,-9.77977300
-9.99999727,-9.88988600
-9.49999729,-10.11688000
-8.99999730,-10.17163000
-8.49999732,-10.05290000
-7.99999733,-9.94279000
-7.49999735,-9.84559500
-6.99999736,-9.79330700
-6.49999737,-9.79330700
-5.99999739,-9.84867000
-5.49999740,-9.95632300
-4.99999742,-10.01722000
-4.49999743,-10.03875000
-3.99999744,-9.87389300
-3.49999746,-9.52817300
-2.99999747,-9.47280900
-2.49999749,-9.71087600
-1.99999750,-9.87573700
-1.49999752,-9.96186000
-0.99999753,-10.01169000
-0.49999754,-10.01169000
0.00000244,-9.95632300
0.50000243,-9.84867000
1.00000241,-9.79330700
1.50000240,-9.79330700
2.00000239,-9.85113100
2.50000237,-9.97047100
3.00000236,-9.97293300
3.50000234,-9.86466500
4.00000233,-9.75516700
4.50000232,-9.64689900
5.00000230,-9.64689900
5.50000229,-9.75516700
6.00000227,-9.86466500
6.50000226,-9.97293300
7.00000224,-9.97047100
7.50000223,-9.85113100
8.00000222,-9.79638200
8.50000220,-9.80745600
9.00000219,-9.80745600
9.50000217,-9.79638200
10.00000216,-9.85113100
10.50000215,-9.97047100
11.00000213,-9.97293300
11.50000212,-9.86466500
12.00000210,-9.75516700
12.50000209,-9.64689900
13.00000207,-9.64689900
13.50000206,-9.75516700
14.00000205,-9.86774200
14.50000203,-9.98646600
15.00000202,-9.93171700
15.50000200,-9.70472400
16.00000199,-9.59768700
16.50000198,-9.61921700
17.00000196,-9.61921700
17.50000195,-9.59768700
18.00000193,-9.69918700
18.50000192,-9.90403500
19.00000191,-10.06644000
19.50000189,-10.17470000
20.00000188,-10.11934000
20.50000186,-9.90342000
21.00000185,-9.73855800
21.50000183,-9.63029000
22.00000182,-9.69119100
22.50000181,-9.92864100
23.00000179,-9.98646600
23.50000178,-9.86774200
24.00000176,-9.75762700
24.50000175,-9.66043300
25.00000174,-9.60568300
25.50000172,-9.59461100
26.00000171,-9.70164800
26.50000169,-9.91818300
27.00000168,-10.02768000
27.50000166,-10.02768000
28.00000165,-9.91510800
28.50000164,-9.68811500
29.00000162,-9.63336600
29.50000161,-9.75209100
30.00000159,-9.87020200
30.50000158,-9.99999900
31.00000157,-9.89050200
31.50000155,-9.54416800
32.00000154,-9.43466900
32.50000152,-9.56446800
33.00000151,-9.67396600
33.50000150,-9.76070300
34.00000148,-9.85912800
34.50000147,-9.94586600
35.00000145,-10.05290000
35.50000144,-10.17163000
36.00000142,-10.11934000
36.50000141,-9.90342000
37.00000140,-9.73855800
37.50000138,-9.63029000
38.00000137,-9.69119100
38.50000135,-9.92864100
39.00000134,-9.98400600
39.50000133,-9.85420700
40.00000131,-9.79638200
40.50000130,-9.80745600
41.00000128,-9.80745600
41.50000127,-9.79638200
42.00000125,-9.84313500
42.50000124,-9.92925600
43.00000123,-10.09658000
43.50000121,-10.34572000
44.00000120,-10.23314000
44.50000118,-9.75701200
45.00000117,-9.64443900
45.50000116,-9.89357700
46.00000114,-10.06090000
46.50000113,-10.14702000
47.00000111,-10.19685000
47.50000110,-10.19685000
48.00000108,-10.14456000
48.50000107,-10.04737000
49.00000106,-9.94033000
49.50000104,-9.83206100
50.00000103,-9.83452200
50.50000101,-9.95386200
51.00000100,-10.01169000
51.50000099,-10.01169000
52.00000097,-9.95386200
52.50000096,-9.83452200
53.00000094,-9.83206100
53.50000093,-9.94033000
54.00000092,-10.04983000
54.50000090,-10.15810000
55.00000089,-10.15563000
55.50000087,-10.03629000
56.00000086,-9.98154500
56.50000084,-9.99261800
57.00000083,-9.99261800
57.50000082,-9.98154500
58.00000080,-10.03383000
58.50000079,-10.14149000
59.00000077,-10.19685000
59.50000076,-10.19685000
60.00000075,-10.14456000
60.50000073,-10.04737000
61.00000072,-9.94033000
61.50000070,-9.83206100
62.00000069,-9.84005800
62.50000067,-9.98092900
63.00000066,-9.92864100
63.50000065,-9.69119100
64.00000063,-9.63890200
64.50000062,-9.77977300
65.00000060,-9.78223300
65.50000059,-9.65243500
66.00000058,-9.64689900
66.50000056,-9.75516700
67.00000055,-9.86220500
67.50000053,-9.95939900
68.00000052,-10.01169000
68.50000051,-10.01169000
69.00000049,-9.95632300
69.50000048,-9.84867000
70.00000046,-9.79638200
70.50000045,-9.80745600
71.00000043,-9.80745600
71.50000042,-9.79638200
72.00000041,-9.85113100
72.50000039,-9.97047100
73.00000038,-9.96739700
73.50000036,-9.83759800
74.00000035,-9.83452200
74.50000034,-9.95386200
75.00000032,-10.01169000
75.50000031,-10.01169000
76.00000029,-9.95632300
76.50000028,-9.84867000
77.00000026,-9.79330700
77.50000025,-9.79330700
78.00000024,-9.84867000
78.50000022,-9.95632300
79.00000021,-10.01169000
79.50000019,-10.01169000
80.00000018,-9.95939900
80.50000017,-9.86220500
81.00000015,-9.75516700
81.50000014,-9.64689900
82.00000012,-9.64936000
82.50000011,-9.76870100
83.00000010,-9.82652600
83.50000008,-9.82652600
84.00000007,-9.76870100
84.50000005,-9.64936000
85.00000004,-9.64689900
85.50000002,-9.75516700
86.00000001,-9.86220500
86.50000000,-9.95939900
86.99999998,-10.00861000
87.49999997,-9.99753900
87.99999995,-9.99753900
88.49999994,-10.00861000
88.99999993,-9.95078800
89.49999991,-9.82098900
89.99999990,-9.87635300
90.49999988,-10.11380000
90.99999987,-10.17470000
91.49999985,-10.06644000
91.99999984,-9.90157400
92.49999983,-9.68565500
92.99999981,-9.63029000
93.49999980,-9.73855800
93.99999978,-9.90342000
94.49999977,-10.11934000
94.99999976,-10.16917000
95.49999974,-10.03937000
95.99999973,-9.98400600
96.49999971,-10.00615000
96.99999970,-9.95632300
97.49999969,-9.84867000
97.99999967,-9.79330700
98.49999966,-9.79330700
98.99999964,-9.85113100
99.49999963,-9.97047100
99.99999961,-9.97047100
100.49999960,-9.85113100
100.99999959,-9.79638200
101.49999957,-9.80745600
101.99999956,-9.80745600
102.49999954,-9.79638200
102.99999953,-9.85113100
103.49999952,-9.97047100
103.99999950,-9.96493600
104.49999949,-9.82406500
104.99999947,-9.87635300
105.49999946,-10.11380000
105.99999944,-10.17163000
106.49999943,-10.05290000
106.99999942,-9.94586600
107.49999940,-9.85912800
107.99999939,-9.75516700
108.49999937,-9.64689900
108.99999936,-9.64382400
109.49999935,-9.74101800
109.99999933,-9.90342000
110.49999932,-10.11934000
110.99999930,-10.16917000
111.49999929,-10.03937000
111.99999927,-9.98400600
112.49999926,-10.00615000
112.99999925,-9.95632300
113.49999923,-9.84867000
113.99999922,-9.79084600
114.49999920,-9.77977300
114.99999919,-9.89234600
115.49999918,-10.13041000
115.99999916,-10.13041000
116.49999915,-9.89234600
116.99999913,-9.78284900
117.49999912,-9.80437900
117.99999911,-9.80991600
118.49999909,-9.80991600
118.99999908,-9.80745600
119.49999906,-9.79638200
119.99999905,-9.85113100
120.49999903,-9.97047100
120.99999902,-9.97047100
121.49999901,-9.85113100
121.99999899,-9.79638200
122.49999898,-9.80745600
122.99999896,-9.80991600
123.49999895,-9.80991600
123.99999894,-9.80991600
124.49999892,-9.80991600
124.99999891,-9.80745600
125.49999889,-9.79638200
125.99999888,-9.85113100
126.49999886,-9.97047100
126.99999885,-9.97047100
127.49999884,-9.85113100
127.99999882,-9.79884200
128.49999881,-9.82098900
128.99999879,-9.77116100
129.49999878,-9.66350800
129.99999877,-9.60014700
130.49999875,-9.56754400
130.99999874,-9.78469400
131.49999872,-10.23868000
131.99999871,-10.34572000
132.49999870,-10.09658000
132.99999868,-9.92618100
133.49999867,-9.82898600
133.99999865,-9.83759800
134.49999864,-9.96739700
134.99999862,-9.97293300
135.49999861,-9.86466500
135.99999860,-9.75209100
136.49999858,-9.63336600
136.99999857,-9.68811500
137.49999855,-9.91510800
137.99999854,-10.02215000
138.49999853,-10.00062000
138.99999851,-10.00062000
139.49999850,-10.02215000
139.99999848,-9.91510800
140.49999847,-9.68811500
140.99999845,-9.63336600
141.49999844,-9.75209100
141.99999843,-9.86774200
142.49999841,-9.98646600
142.99999840,-9.93171700
143.49999838,-9.70472400
143.99999837,-9.59461100
144.49999836,-9.60568300
144.99999834,-9.66043300
145.49999833,-9.75762700
145.99999831,-9.86220500
146.49999830,-9.95939900
146.99999829,-10.01169000
147.49999827,-10.01169000
147.99999826,-9.95939900
148.49999824,-9.86220500
148.99999823,-9.75516700
149.49999821,-9.64689900
149.99999820,-9.64936000
150.49999819,-9.76870100
150.99999817,-9.82344900
151.49999816,-9.81237700
151.99999814,-9.80991600
152.49999813,-9.80991600
152.99999812,-9.80745600
153.49999810,-9.79638200
153.99999809,-9.84867000
154.49999807,-9.95632300
154.99999806,-10.00861000
155.49999804,-9.99753900
155.99999803,-9.99507800
156.49999802,-9.99507800
156.99999800,-9.99507800
157.49999799,-9.99507800
157.99999797,-10.00062000
158.49999796,-10.02215000
158.99999795,-9.91818300
159.49999793,-9.70164800
159.99999792,-9.59461100
160.49999790,-9.60568300
160.99999789,-9.66043300
161.49999787,-9.75762700
161.99999786,-9.85912800
162.49999785,-9.94586600
162.99999783,-10.05290000
163.49999782,-10.17163000
163.99999780,-10.11934000
164.49999779,-9.90342000
164.99999778,-9.73855800
165.49999776,-9.63029000
165.99999775,-9.69119100
166.49999773,-9.92864100
166.99999772,-9.98646600
167.49999771,-9.86774200
167.99999769,-9.75209100
168.49999768,-9.63336600
168.99999766,-9.68811500
169.49999765,-9.91510800
169.99999763,-10.02215000
170.49999762,-10.00062000
170.99999761,-9.99507800
171.49999759,-9.99507800
171.99999758,-9.99753900
172.49999756,-10.00861000
172.99999755,-9.95632300
173.49999754,-9.84867000
173.99999752,-9.79884200
174.49999751,-9.82098900
174.99999749,-9.77116100
175.49999748,-9.66350800
175.99999746,-9.60568300
176.49999745,-9.59461100
176.99999744,-9.70164800
177.49999742,-9.91818300
177.99999741,-10.02215000
178.49999739,-10.00062000
178.99999738,-9.99753900
179.49999737,-10.00861000
179.99999735,-9.95632300
180.49999734,-9.84867000
180.99999732,-9.79330700
181.49999731,-9.79330700
181.99999730,-9.84867000
182.49999728,-9.95632300
182.99999727,-10.01415000
183.49999725,-10.02522000
183.99999724,-9.91264700
184.49999722,-9.67458200
184.99999721,-9.67458200
185.49999720,-9.91264700
185.99999718,-10.02215000
186.49999717,-10.00062000
186.99999715,-10.00062000
187.49999714,-10.02215000
187.99999713,-9.91510800
188.49999711,-9.68811500
188.99999710,-9.63029000
189.49999708,-9.73855800
189.99999707,-9.90342000
190.49999705,-10.11934000
190.99999704,-10.16917000
191.49999703,-10.03937000
191.99999701,-9.98954200
192.49999700,-10.03322000
192.99999698,-9.87143200
193.49999697,-9.51402500
193.99999696,-9.51402500
194.49999694,-9.87143200
194.99999693,-10.04183000
195.49999691,-10.03076000
195.99999690,-9.91510800
196.49999689,-9.68811500
196.99999687,-9.63336600
197.49999686,-9.75209100
197.99999684,-9.86220500
198.49999683,-9.95939900
198.99999681,-10.01169000
199.49999680,-10.01169000
199.99999679,-9.95632300
200.49999677,-9.84867000
200.99999676,-9.79330700
201.49999674,-9.79330700
201.99999673,-9.84867000
202.49999672,-9.95632300
202.99999670,-10.01415000
203.49999669,-10.02522000
203.99999667,-9.91510800
204.49999666,-9.68811500
204.99999664,-9.63336600
205.49999663,-9.75209100
205.99999662,-9.86220500
206.49999660,-9.95939900
206.99999659,-10.00861000
207.49999657,-9.99753900
207.99999656,-9.99753900
208.49999655,-10.00861000
208.99999653,-9.95386200
209.49999652,-9.83452200
209.99999650,-9.83452200
210.49999649,-9.95386200
210.99999648,-10.01722000
211.49999646,-10.03875000
211.99999645,-9.87389300
212.49999643,-9.52817300
212.99999642,-9.47588500
213.49999640,-9.72440900
213.99999639,-9.83452200
214.49999638,-9.80191900
214.99999636,-9.85113100
215.49999635,-9.97047100
215.99999633,-9.96739700
216.49999632,-9.83759800
216.99999631,-9.83452200
217.49999629,-9.95386200
217.99999628,-10.00861000
218.49999626,-9.99753900
218.99999625,-9.99753900
219.49999623,-10.00861000
219.99999622,-9.95632300
220.49999621,-9.84867000
220.99999619,-9.79084600
221.49999618,-9.77977300
221.99999616,-9.88988600
222.49999615,-10.11688000
222.99999614,-10.16917000
223.49999612,-10.03937000
223.99999611,-9.98708100
224.49999609,-10.01968000
224.99999608,-9.91818300
225.49999606,-9.70164800
225.99999605,-9.59461100
226.49999604,-9.60568300
226.99999602,-9.66596900
227.49999601,-9.78531000
227.99999599,-9.78223300
228.49999598,-9.65243500
228.99999597,-9.64689900
229.49999595,-9.75516700
229.99999594,-9.86220500
230.49999592,-9.95939900
230.99999591,-10.01169000
231.49999590,-10.01169000
231.99999588,-9.95386200
232.49999587,-9.83452200
232.99999585,-9.83452200
233.49999584,-9.95386200
233.99999582,-10.00615000
234.49999581,-9.98400600
234.99999580,-10.04183000
235.49999578,-10.18270000
235.99999577,-10.07566000
236.49999575,-9.72933000
236.99999574,-9.61983200
237.49999573,-9.74963100
237.99999571,-9.86466500
238.49999570,-9.97293300
238.99999568,-9.96739700
239.49999567,-9.83759800
239.99999565,-9.84005800
240.49999564,-9.98092900
240.99999563,-9.93171700
241.49999561,-9.70472400
241.99999560,-9.59215000
242.49999558,-9.59215000
242.99999557,-9.70718500
243.49999556,-9.94525100
243.99999554,-9.94279000
244.49999553,-9.69365100
244.99999551,-9.63336600
245.49999550,-9.75209100
245.99999549,-9.85912800
246.49999547,-9.94586600
246.99999546,-10.04983000
247.49999544,-10.15810000
247.99999543,-10.15810000
248.49999541,-10.04983000
248.99999540,-9.94033000
249.49999539,-9.83206100
249.99999537,-9.83452200
250.49999536,-9.95386200
250.99999534,-10.01415000
251.49999533,-10.02522000
251.99999532,-9.91510800
252.49999530,-9.68811500
252.99999529,-9.63029000
253.49999527,-9.73855800
253.99999526,-9.90895600
254.49999524,-10.14702000
254.99999523,-10.09166000
255.49999522,-9.74594000
255.99999520,-9.58107800
256.49999519,-9.60260800
256.99999517,-9.66596900
257.49999516,-9.78531000
257.99999515,-9.77669800
258.49999513,-9.62536900
258.99999512,-9.73240600
259.49999510,-10.08920000
259.99999509,-10.14948000
260.49999508,-9.92249000
260.99999506,-9.69980200
261.49999505,-9.48388300
261.99999503,-9.48634300
262.49999502,-9.71333600
262.99999500,-9.87573700
263.49999499,-9.96186000
263.99999498,-10.00861000
264.49999496,-9.99753900
264.99999495,-9.99507800
265.49999493,-9.99507800
265.99999492,-9.99261800
266.49999491,-9.98154500
266.99999489,-10.03629000
267.49999488,-10.15563000
267.99999486,-10.15810000
268.49999485,-10.04983000
268.99999483,-9.93725300
269.49999482,-9.81852800
269.99999481,-9.87635300
270.49999479,-10.11380000
270.99999478,-10.16917000
271.49999476,-10.03937000
271.99999475,-9.98154500
272.49999474,-9.99261800
272.99999472,-9.99753900
273.49999471,-10.00861000
273.99999469,-9.95386200
274.49999468,-9.83452200
274.99999466,-9.84005800
275.49999465,-9.98092900
275.99999464,-9.92864100
276.49999462,-9.69119100
276.99999461,-9.63336600
277.49999459,-9.75209100
277.99999458,-9.86466500
278.49999457,-9.97293300
278.99999455,-9.96739700
279.49999454,-9.83759800
279.99999452,-9.83452200
280.49999451,-9.95386200
280.99999450,-10.00861000
281.49999448,-9.99753900
281.99999447,-9.99753900
282.49999445,-10.00861000
282.99999444,-9.95939900
283.49999442,-9.86220500
283.99999441,-9.75209100
