Time,Channel B
(ns),(mV)

-100.99999470,-9.62229300
-100.49999472,-9.76316400
-99.99999473,-9.82652600
-99.49999474,-9.82652600
-98.99999476,-9.76870100
-98.49999477,-9.64936000
-97.99999479,-9.64936000
-97.49999480,-9.76870100
-96.99999481,-9.82344900
-96.49999483,-9.81237700
-95.99999484,-9.80437900
-95.49999486,-9.78284900
-94.99999487,-9.89234600
-94.49999488,-10.13041000
-93.99999490,-10.13349000
-93.49999491,-9.90649500
-92.99999493,-9.73855800
-92.49999494,-9.63029000
-91.99999496,-9.68811500
-91.49999497,-9.91510800
-90.99999498,-10.02215000
-90.49999500,-10.00062000
-89.99999501,-9.99507800
-89.49999503,-9.99507800
-88.99999504,-9.99261800
-88.49999505,-9.98154500
-87.99999507,-10.03629000
-87.49999508,-10.15563000
-86.99999510,-10.15563000
-86.49999511,-10.03629000
-85.99999513,-9.98400600
-85.49999514,-10.00615000
-84.99999515,-9.95386200
-84.49999517,-9.83452200
-83.99999518,-9.83452200
-83.49999520,-9.95386200
-82.99999521,-10.00861000
-82.49999522,-9.99753900
-81.99999524,-9.99753900
-81.49999525,-10.00861000
-80.99999527,-9.95386200
-80.49999528,-9.83452200
-79.99999529,-9.83452200
-79.49999531,-9.95386200
-78.99999532,-10.01169000
-78.49999534,-10.01169000
-77.99999535,-9.95386200
-77.49999537,-9.83452200
-76.99999538,-9.83206100
-76.49999539,-9.94033000
-75.99999541,-10.04983000
-75.49999542,-10.15810000
-74.99999544,-10.15810000
-74.49999545,-10.04983000
-73.99999546,-9.94279000
-73.49999548,-9.84559500
-72.99999549,-9.79084600
-72.49999551,-9.77977300
-71.99999552,-9.88435100
-71.49999554,-10.08920000
-70.99999555,-10.25160000
-70.49999556,-10.35987000
-69.99999558,-10.30204000
-69.49999559,-10.07505000
-68.99999561,-9.96801100
-68.49999562,-9.98954200
-67.99999563,-9.99507800
-67.49999565,-9.99507800
-66.99999566,-9.99507800
-66.49999568,-9.99507800
-65.99999569,-10.00062000
-65.49999571,-10.02215000
-64.99999572,-9.91818300
-64.49999573,-9.70164800
-63.99999575,-9.59215000
-63.49999576,-9.59215000
-62.99999578,-9.70164800
-62.49999579,-9.91818300
-61.99999580,-10.02215000
-61.49999582,-10.00062000
-60.99999583,-9.99507800
-60.49999585,-9.99507800
-59.99999586,-9.99753900
-59.49999587,-10.00861000
-58.99999589,-9.95632300
-58.49999590,-9.84867000
-57.99999592,-9.79084600
-57.49999593,-9.77977300
-56.99999595,-9.88435100
-56.49999596,-10.08920000
-55.99999597,-10.25467000
-55.49999599,-10.37340000
-54.99999600,-10.26329000
-54.49999602,-9.92802600
-53.99999603,-9.76870100
-53.49999604,-9.80191900
-52.99999606,-9.80745600
-52.49999607,-9.79638200
-51.99999609,-9.85420700
-51.49999610,-9.98400600
-50.99999612,-9.93171700
-50.49999613,-9.70472400
-49.99999614,-9.59461100
-49.49999616,-9.60568300
-48.99999617,-9.66350800
-48.49999619,-9.77116100
-47.99999620,-9.82344900
-47.49999621,-9.81237700
-46.99999623,-9.81237700
-46.49999624,-9.82344900
-45.99999626,-9.76870100
-45.49999627,-9.64936000
-44.99999628,-9.64382400
-44.49999630,-9.74101800
-43.99999631,-9.90342000
-43.49999633,-10.11934000
-42.99999634,-10.16917000
-42.49999636,-10.03937000
-41.99999637,-9.98400600
-41.49999638,-10.00615000
-40.99999640,-9.95386200
-40.49999641,-9.83452200
-39.99999643,-9.83452200
-39.49999644,-9.95386200
-38.99999645,-10.01415000
-38.49999647,-10.02522000
-37.99999648,-9.91510800
-37.49999650,-9.68811500
-36.99999651,-9.63029000
-36.49999653,-9.73855800
-35.99999654,-9.90342000
-35.49999655,-10.11934000
-34.99999657,-10.17163000
-34.49999658,-10.05290000
-33.99999660,-9.94033000
-33.49999661,-9.83206100
-32.99999662,-9.83759800
-32.49999664,-9.96739700
-31.99999665,-9.96493600
-31.49999667,-9.82406500
-30.99999668,-9.87881400
-30.49999669,-10.12795000
-29.99999671,-10.13041000
-29.49999672,-9.89234600
-28.99999674,-9.77977300
-28.49999675,-9.79084600
-27.99999677,-9.85420700
-27.49999678,-9.98400600
-26.99999679,-9.92864100
-26.49999681,-9.69119100
-25.99999682,-9.63582600
-25.49999684,-9.76562400
-24.99999685,-9.82098900
-24.49999686,-9.79884200
-23.99999688,-9.84559500
-23.49999689,-9.94279000
-22.99999691,-10.05290000
-22.49999692,-10.17163000
-21.99999694,-10.11688000
-21.49999695,-9.88988600
-20.99999696,-9.77977300
-20.49999698,-9.79084600
-19.99999699,-9.84867000
-19.49999701,-9.95632300
-18.99999702,-10.00861000
-18.49999703,-9.99753900
-17.99999705,-9.99753900
-17.49999706,-10.00861000
-16.99999708,-9.95939900
-16.49999709,-9.86220500
-15.99999710,-9.75209100
-15.49999712,-9.63336600
-14.99999713,-9.69365100
-14.49999715,-9.94279000
-13.99999716,-9.94279000
-13.49999718,-9.69365100
-12.99999719,-9.63336600
-12.49999720,-9.75209100
-11.99999722,-9.86220500
-11.49999723,-9.95939900
-10.99999725,-10.00861000
-10.49999726,-9.99753900
-9.99999727,-10.00062000
-9.49999729,-10.02215000
-8.99999730,-9.91264700
-8.49999732,-9.67458200
-7.99999733,-9.67458200
-7.49999735,-9.91264700
-6.99999736,-10.02768000
-6.49999737,-10.02768000
-5.99999739,-9.91510800
-5.49999740,-9.68811500
-4.99999742,-9.63336600
-4.49999743,-9.75209100
-3.99999744,-9.86774200
-3.49999746,-9.98646600
-2.99999747,-9.93171700
-2.49999749,-9.70472400
-1.99999750,-9.59461100
-1.49999752,-9.60568300
-0.99999753,-9.66350800
-0.49999754,-9.77116100
0.00000244,-9.82098900
0.50000243,-9.79884200
1.00000241,-9.85420700
1.50000240,-9.98400600
2.00000239,-9.92618100
2.50000237,-9.67704200
3.00000236,-9.67150600
3.50000234,-9.89849900
4.00000233,-10.06398000
4.50000232,-10.16117000
5.00000230,-10.16117000
5.50000229,-10.06398000
6.00000227,-9.89849900
6.50000226,-9.67150600
7.00000224,-9.67150600
7.50000223,-9.89849900
8.00000222,-10.06398000
8.50000220,-10.16117000
9.00000219,-10.16117000
9.50000217,-10.06398000
10.00000216,-9.90157400
10.50000215,-9.68565500
11.00000213,-9.63336600
11.50000212,-9.75209100
12.00000210,-9.86774200
12.50000209,-9.98646600
13.00000207,-9.93171700
13.50000206,-9.70472400
14.00000205,-9.59461100
14.50000203,-9.60568300
15.00000202,-9.66596900
15.50000200,-9.78531000
16.00000199,-9.77977300
16.50000198,-9.63890200
17.00000196,-9.69119100
17.50000195,-9.92864100
18.00000193,-9.98400600
18.50000192,-9.85420700
19.00000191,-9.79638200
19.50000189,-9.80745600
20.00000188,-9.80745600
20.50000186,-9.79638200
21.00000185,-9.84867000
21.50000183,-9.95632300
22.00000182,-10.01169000
22.50000181,-10.01169000
23.00000179,-9.95386200
23.50000178,-9.83452200
24.00000176,-9.83206100
24.50000175,-9.94033000
25.00000174,-10.04983000
25.50000172,-10.15810000
26.00000171,-10.15810000
26.50000169,-10.04983000
27.00000168,-9.94033000
27.50000166,-9.83206100
28.00000165,-9.83452200
28.50000164,-9.95386200
29.00000162,-10.00861000
29.50000161,-9.99753900
30.00000159,-9.99507800
30.50000158,-9.99507800
31.00000157,-9.99753900
31.50000155,-10.00861000
32.00000154,-9.95386200
32.50000152,-9.83452200
33.00000151,-9.83759800
33.50000150,-9.96739700
34.00000148,-9.97047100
34.50000147,-9.85113100
35.00000145,-9.79330700
35.50000144,-9.79330700
36.00000142,-9.84559500
36.50000141,-9.94279000
37.00000140,-10.04983000
37.50000138,-10.15810000
38.00000137,-10.15563000
38.50000135,-10.03629000
39.00000134,-9.98154500
39.50000133,-9.99261800
40.00000131,-9.99507800
40.50000130,-9.99507800
41.00000128,-10.00062000
41.50000127,-10.02215000
42.00000125,-9.91510800
42.50000124,-9.68811500
43.00000123,-9.63029000
43.50000121,-9.73855800
44.00000120,-9.90342000
44.50000118,-10.11934000
45.00000117,-10.17470000
45.50000116,-10.06644000
46.00000114,-9.90403500
46.50000113,-9.69918700
47.00000111,-9.59768700
47.50000110,-9.61921700
48.00000108,-9.61921700
48.50000107,-9.59768700
49.00000106,-9.70472400
49.50000104,-9.93171700
50.00000103,-9.98646600
50.50000101,-9.86774200
51.00000100,-9.75209100
51.50000099,-9.63336600
52.00000097,-9.69119100
52.50000096,-9.92864100
53.00000094,-9.98646600
53.50000093,-9.86774200
54.00000092,-9.75209100
54.50000090,-9.63336600
55.00000089,-9.68565500
55.50000087,-9.90157400
56.00000086,-10.06398000
56.50000084,-10.16117000
57.00000083,-10.16117000
57.50000082,-10.06398000
58.00000080,-9.89849900
58.50000079,-9.67150600
59.00000077,-9.67150600
59.50000076,-9.89849900
60.00000075,-10.06398000
60.50000073,-10.16117000
61.00000072,-10.15563000
61.50000070,-10.03629000
62.00000069,-9.98400600
62.50000067,-10.00615000
63.00000066,-9.95632300
63.50000065,-9.84867000
64.00000063,-9.79330700
64.50000062,-9.79330700
65.00000060,-9.85113100
65.50000059,-9.97047100
66.00000058,-9.97047100
66.50000056,-9.85113100
67.00000055,-9.79084600
67.50000053,-9.77977300
68.00000052,-9.88988600
68.50000051,-10.11688000
69.00000049,-10.16609000
69.50000048,-10.02522000
70.00000046,-10.02522000
70.50000045,-10.16609000
71.00000043,-10.11380000
71.50000042,-9.87635300
72.00000041,-9.82098900
72.50000039,-9.95078800
73.00000038,-10.01415000
73.50000036,-10.02522000
74.00000035,-9.91818300
74.50000034,-9.70164800
75.00000032,-9.59215000
75.50000031,-9.59215000
76.00000029,-9.70472400
76.50000028,-9.93171700
77.00000026,-9.98092900
77.50000025,-9.84005800
78.00000024,-9.83452200
78.50000022,-9.95386200
79.00000021,-10.01415000
79.50000019,-10.02522000
80.00000018,-9.91264700
80.50000017,-9.67458200
81.00000015,-9.67704200
81.50000014,-9.92618100
82.00000012,-9.98092900
82.50000011,-9.84005800
83.00000010,-9.83452200
83.50000008,-9.95386200
84.00000007,-10.00861000
84.50000005,-9.99753900
85.00000004,-9.99507800
85.50000002,-9.99507800
86.00000001,-9.99507800
86.50000000,-9.99507800
86.99999998,-9.99507800
87.49999997,-9.99507800
87.99999995,-9.99753900
88.49999994,-10.00861000
88.99999993,-9.95632300
89.49999991,-9.84867000
89.99999990,-9.79638200
90.49999988,-9.80745600
90.99999987,-9.80991600
91.49999985,-9.80991600
91.99999984,-9.81237700
92.49999983,-9.82344900
92.99999981,-9.77116100
93.49999980,-9.66350800
93.99999978,-9.60814500
94.49999977,-9.60814500
94.99999976,-9.66596900
95.49999974,-9.78531000
95.99999973,-9.78223300
96.49999971,-9.65243500
96.99999970,-9.65243500
97.49999969,-9.78223300
97.99999967,-9.78223300
98.49999966,-9.65243500
98.99999964,-9.64382400
99.49999963,-9.74101800
99.99999961,-9.90096000
100.49999960,-10.10581000
100.99999959,-10.21038000
101.49999957,-10.19931000
101.99999956,-10.14149000
102.49999954,-10.03383000
102.99999953,-9.98154500
103.49999952,-9.99261800
103.99999950,-9.99507800
104.49999949,-9.99507800
104.99999947,-9.99507800
105.49999946,-9.99507800
105.99999944,-9.99261800
106.49999943,-9.98154500
106.99999942,-10.03383000
107.49999940,-10.14149000
107.99999939,-10.19685000
108.49999937,-10.19685000
108.99999936,-10.14149000
109.49999935,-10.03383000
109.99999933,-9.98400600
110.49999932,-10.00615000
110.99999930,-9.95939900
111.49999929,-9.86220500
111.99999927,-9.75516700
112.49999926,-9.64689900
112.99999925,-9.65243500
113.49999923,-9.78223300
113.99999922,-9.78223300
114.49999920,-9.65243500
114.99999919,-9.64382400
115.49999918,-9.74101800
115.99999916,-9.90342000
116.49999915,-10.11934000
116.99999913,-10.16917000
117.49999912,-10.03937000
117.99999911,-9.98154500
118.49999909,-9.99261800
118.99999908,-9.99507800
119.49999906,-9.99507800
119.99999905,-9.99507800
120.49999903,-9.99507800
120.99999902,-10.00062000
121.49999901,-10.02215000
121.99999899,-9.91264700
122.49999898,-9.67458200
122.99999896,-9.67150600
123.49999895,-9.89849900
123.99999894,-10.06951000
124.49999892,-10.18824000
124.99999891,-10.07812000
125.49999889,-9.74286400
125.99999888,-9.58353800
126.49999886,-9.61675600
126.99999885,-9.61921700
127.49999884,-9.59768700
127.99999882,-9.70164800
128.49999881,-9.91818300
128.99999879,-10.02522000
129.49999878,-10.01415000
129.99999877,-9.95386200
130.49999875,-9.83452200
130.99999874,-9.83452200
131.49999872,-9.95386200
131.99999871,-10.00861000
132.49999870,-9.99753900
132.99999868,-9.99507800
133.49999867,-9.99507800
133.99999865,-9.99753900
134.49999864,-10.00861000
134.99999862,-9.95386200
135.49999861,-9.83452200
135.99999860,-9.83452200
136.49999858,-9.95386200
136.99999857,-10.01415000
137.49999855,-10.02522000
137.99999854,-9.91510800
138.49999853,-9.68811500
138.99999851,-9.63336600
139.49999850,-9.75209100
139.99999848,-9.86466500
140.49999847,-9.97293300
140.99999845,-9.97293300
141.49999844,-9.86466500
141.99999843,-9.75516700
142.49999841,-9.64689900
142.99999840,-9.64936000
143.49999838,-9.76870100
143.99999837,-9.82098900
144.49999836,-9.79884200
144.99999834,-9.85113100
145.49999833,-9.97047100
145.99999831,-9.96739700
146.49999830,-9.83759800
146.99999829,-9.83206100
147.49999827,-9.94033000
147.99999826,-10.04983000
148.49999824,-10.15810000
148.99999823,-10.15810000
149.49999821,-10.04983000
149.99999820,-9.94279000
150.49999819,-9.84559500
150.99999817,-9.79884200
151.49999816,-9.82098900
151.99999814,-9.76870100
152.49999813,-9.64936000
152.99999812,-9.64936000
153.49999810,-9.76870100
153.99999809,-9.82098900
154.49999807,-9.79884200
154.99999806,-9.84559500
155.49999804,-9.94279000
155.99999803,-10.04983000
156.49999802,-10.15810000
156.99999800,-10.15256000
157.49999799,-10.02276000
157.99999797,-10.02522000
158.49999796,-10.16609000
158.99999795,-10.11380000
159.49999793,-9.87635300
159.99999792,-9.82098900
160.49999790,-9.95078800
160.99999789,-10.01415000
161.49999787,-10.02522000
161.99999786,-9.91510800
162.49999785,-9.68811500
162.99999783,-9.63029000
163.49999782,-9.73855800
163.99999780,-9.90342000
164.49999779,-10.11934000
164.99999778,-10.17163000
165.49999776,-10.05290000
165.99999775,-9.94033000
166.49999773,-9.83206100
166.99999772,-9.83452200
167.49999771,-9.95386200
167.99999769,-10.00308000
168.49999768,-9.97047100
168.99999766,-10.07751000
169.49999765,-10.31557000
169.99999763,-10.31865000
170.49999762,-10.09166000
170.99999761,-9.92618100
171.49999759,-9.82898600
171.99999758,-9.83759800
172.49999756,-9.96739700
172.99999755,-9.96739700
173.49999754,-9.83759800
173.99999752,-9.83759800
174.49999751,-9.96739700
174.99999749,-9.97293300
175.49999748,-9.86466500
175.99999746,-9.75209100
176.49999745,-9.63336600
176.99999744,-9.68811500
177.49999742,-9.91510800
177.99999741,-10.02215000
178.49999739,-10.00062000
178.99999738,-9.99507800
179.49999737,-9.99507800
179.99999735,-9.99507800
180.49999734,-9.99507800
180.99999732,-9.99507800
181.49999731,-9.99507800
181.99999730,-9.99507800
182.49999728,-9.99507800
182.99999727,-9.99507800
183.49999725,-9.99507800
183.99999724,-9.99507800
184.49999722,-9.99507800
184.99999721,-10.00062000
185.49999720,-10.02215000
185.99999718,-9.91510800
186.49999717,-9.68811500
186.99999715,-9.63029000
187.49999714,-9.73855800
187.99999713,-9.90342000
188.49999711,-10.11934000
188.99999710,-10.17163000
189.49999708,-10.05290000
189.99999707,-9.94279000
190.49999705,-9.84559500
190.99999704,-9.79330700
191.49999703,-9.79330700
191.99999701,-9.84313500
192.49999700,-9.92925600
192.99999698,-10.09412000
193.49999697,-10.33218000
193.99999696,-10.27682000
194.49999694,-9.93110200
194.99999693,-9.76624000
195.49999691,-9.78777000
195.99999690,-9.85113100
196.49999689,-9.97047100
196.99999687,-9.97047100
197.49999686,-9.85113100
197.99999684,-9.79638200
198.49999683,-9.80745600
198.99999681,-9.80745600
199.49999680,-9.79638200
199.99999679,-9.84867000
200.49999677,-9.95632300
200.99999676,-10.01415000
201.49999674,-10.02522000
201.99999673,-9.91510800
202.49999672,-9.68811500
202.99999670,-9.63336600
203.49999669,-9.75209100
203.99999667,-9.86466500
204.49999666,-9.97293300
204.99999664,-9.97293300
205.49999663,-9.86466500
205.99999662,-9.75516700
206.49999660,-9.64689900
206.99999659,-9.64382400
207.49999657,-9.74101800
207.99999656,-9.90096000
208.49999655,-10.10581000
208.99999653,-10.21592000
209.49999652,-10.22699000
209.99999650,-10.06459000
210.49999649,-9.74040300
210.99999648,-9.57800100
211.49999646,-9.58907400
211.99999645,-9.70472400
212.49999643,-9.93171700
212.99999642,-9.98400600
213.49999640,-9.85420700
213.99999639,-9.79330700
214.49999638,-9.79330700
214.99999636,-9.85113100
215.49999635,-9.97047100
215.99999633,-9.96739700
216.49999632,-9.83759800
216.99999631,-9.83759800
217.49999629,-9.96739700
217.99999628,-9.97047100
218.49999626,-9.85113100
218.99999625,-9.79330700
219.49999623,-9.79330700
219.99999622,-9.85113100
220.49999621,-9.97047100
220.99999619,-9.97047100
221.49999618,-9.85113100
221.99999616,-9.79638200
222.49999615,-9.80745600
222.99999614,-9.81237700
223.49999612,-9.82344900
223.99999611,-9.76870100
224.49999609,-9.64936000
224.99999608,-9.64936000
225.49999606,-9.76870100
225.99999605,-9.82098900
226.49999604,-9.79884200
226.99999602,-9.84867000
227.49999601,-9.95632300
227.99999599,-10.00861000
228.49999598,-9.99753900
228.99999597,-9.99507800
229.49999595,-9.99507800
229.99999594,-9.99753900
230.49999592,-10.00861000
230.99999591,-9.95386200
231.49999590,-9.83452200
231.99999588,-9.83452200
232.49999587,-9.95386200
232.99999585,-10.01415000
233.49999584,-10.02522000
233.99999582,-9.91510800
234.49999581,-9.68811500
234.99999580,-9.63029000
235.49999578,-9.73855800
235.99999577,-9.90649500
236.49999575,-10.13349000
236.99999574,-10.13595000
237.49999573,-9.92003000
237.99999571,-9.69980200
238.49999570,-9.48388300
238.99999568,-9.48941900
239.49999567,-9.72748500
239.99999565,-9.83452200
240.49999564,-9.80191900
240.99999563,-9.85420700
241.49999561,-9.98400600
241.99999560,-9.92864100
242.49999558,-9.69119100
242.99999557,-9.63336600
243.49999556,-9.75209100
243.99999554,-9.86220500
244.49999553,-9.95939900
244.99999551,-10.00615000
245.49999550,-9.98400600
245.99999549,-10.03383000
246.49999547,-10.14149000
246.99999546,-10.19377000
247.49999544,-10.18270000
247.99999543,-10.18270000
248.49999541,-10.19377000
248.99999540,-10.14456000
249.49999539,-10.04737000
249.99999537,-9.94279000
250.49999536,-9.84559500
250.99999534,-9.79330700
251.49999533,-9.79330700
251.99999532,-9.85113100
252.49999530,-9.97047100
252.99999529,-9.97293300
253.49999527,-9.86466500
253.99999526,-9.75516700
254.49999524,-9.64689900
254.99999523,-9.65243500
255.49999522,-9.78223300
255.99999520,-9.77977300
256.49999519,-9.63890200
256.99999517,-9.69365100
257.49999516,-9.94279000
257.99999515,-9.93971300
258.49999513,-9.68011800
258.99999512,-9.67458200
259.49999510,-9.91264700
259.99999509,-10.02522000
260.49999508,-10.01415000
260.99999506,-9.95386200
261.49999505,-9.83452200
261.99999503,-9.83452200
262.49999502,-9.95386200
262.99999500,-10.00615000
263.49999499,-9.98400600
263.99999498,-10.03629000
264.49999496,-10.15563000
264.99999495,-10.16363000
265.49999493,-10.07751000
265.99999492,-9.86589500
266.49999491,-9.55278000
266.99999489,-9.39037900
267.49999488,-9.39037900
267.99999486,-9.55770100
268.49999485,-9.89296200
268.99999483,-9.99446300
269.49999482,-9.84313500
269.99999481,-9.84005800
270.49999479,-9.98092900
270.99999478,-9.92864100
271.49999476,-9.69119100
271.99999475,-9.63336600
272.49999474,-9.75209100
272.99999472,-9.86774200
273.49999471,-9.98646600
273.99999469,-9.93171700
274.49999468,-9.70472400
274.99999466,-9.59461100
275.49999465,-9.60568300
275.99999464,-9.66043300
276.49999462,-9.75762700
276.99999461,-9.86220500
277.49999459,-9.95939900
277.99999458,-10.01169000
278.49999457,-10.01169000
278.99999455,-9.95632300
279.49999454,-9.84867000
279.99999452,-9.79638200
280.49999451,-9.80745600
280.99999450,-9.80991600
281.49999448,-9.80991600
281.99999447,-9.80745600
282.49999445,-9.79638200
282.99999444,-9.84559500
283.49999442,-9.94279000
