Time,Channel B
(ns),(mV)

-100.99999470,-9.63582600
-100.49999472,-9.76562400
-99.99999473,-9.82344900
-99.49999474,-9.81237700
-98.99999476,-9.80991600
-98.49999477,-9.80991600
-97.99999479,-9.80745600
-97.49999480,-9.79638200
-96.99999481,-9.84867000
-96.49999483,-9.95632300
-95.99999484,-10.00861000
-95.49999486,-9.99753900
-94.99999487,-10.00615000
-94.49999488,-10.04983000
-93.99999490,-9.83821400
-93.49999491,-9.39468400
-92.99999493,-9.23289900
-92.49999494,-9.36269600
-91.99999496,-9.52755900
-91.49999497,-9.72194900
-90.99999498,-9.87881400
-90.49999500,-9.97600800
-89.99999501,-9.97047100
-89.49999503,-9.85113100
-88.99999504,-9.79330700
-88.49999505,-9.79330700
-87.99999507,-9.84867000
-87.49999508,-9.95632300
-86.99999510,-10.01169000
-86.49999511,-10.01169000
-85.99999513,-9.95386200
-85.49999514,-9.83452200
-84.99999515,-9.83452200
-84.49999517,-9.95386200
-83.99999518,-10.01415000
-83.49999520,-10.02522000
-82.99999521,-9.91818300
-82.49999522,-9.70164800
-81.99999524,-9.59461100
-81.49999525,-9.60568300
-80.99999527,-9.66043300
-80.49999528,-9.75762700
-79.99999529,-9.85912800
-79.49999531,-9.94586600
-78.99999532,-10.05536000
-78.49999534,-10.18516000
-77.99999535,-10.07812000
-77.49999537,-9.74286400
-76.99999538,-9.57800100
-76.49999539,-9.58907400
-75.99999541,-9.70718500
-75.49999542,-9.94525100
-74.99999544,-9.93971300
-74.49999545,-9.68011800
-73.99999546,-9.67458200
-73.49999548,-9.91264700
-72.99999549,-10.01968000
-72.49999551,-9.98708100
-71.99999552,-10.03629000
-71.49999554,-10.15563000
-70.99999555,-10.15810000
-70.49999556,-10.04983000
-69.99999558,-9.94279000
-69.49999559,-9.84559500
-68.99999561,-9.79084600
-68.49999562,-9.77977300
-67.99999563,-9.88435100
-67.49999565,-10.08920000
-66.99999566,-10.25160000
-66.49999568,-10.35987000
-65.99999569,-10.31004000
-65.49999571,-10.11565000
-64.99999572,-9.84928600
-64.49999573,-9.53617100
-63.99999575,-9.43466900
-63.49999576,-9.56446800
-62.99999578,-9.67950200
-62.49999579,-9.78777000
-61.99999580,-9.78531000
-61.49999582,-9.66596900
-60.99999583,-9.60568300
-60.49999585,-9.59461100
-59.99999586,-9.70164800
-59.49999587,-9.91818300
-58.99999589,-10.02522000
-58.49999590,-10.01415000
-57.99999592,-9.95632300
-57.49999593,-9.84867000
-56.99999595,-9.79330700
-56.49999596,-9.79330700
-55.99999597,-9.85113100
-55.49999599,-9.97047100
-54.99999600,-9.97600800
-54.49999602,-9.87881400
-53.99999603,-9.71333600
-53.49999604,-9.48634300
-52.99999606,-9.48941900
-52.49999607,-9.72748500
-51.99999609,-9.83698400
-51.49999610,-9.81545200
-50.99999612,-9.80991600
-50.49999613,-9.80991600
-49.99999614,-9.81545200
-49.49999616,-9.83698400
-48.99999617,-9.72994500
-48.49999619,-9.50295300
-47.99999620,-9.44512700
-47.49999621,-9.55339500
-46.99999623,-9.72133400
-46.49999624,-9.94832700
-45.99999626,-9.94279000
-45.49999627,-9.69365100
-44.99999628,-9.63336600
-44.49999630,-9.75209100
-43.99999631,-9.86774200
-43.49999633,-9.98646600
-42.99999634,-9.93171700
-42.49999636,-9.70472400
-41.99999637,-9.59461100
-41.49999638,-9.60568300
-40.99999640,-9.66043300
-40.49999641,-9.75762700
-39.99999643,-9.86220500
-39.49999644,-9.95939900
-38.99999645,-10.01169000
-38.49999647,-10.01169000
-37.99999648,-9.95632300
-37.49999650,-9.84867000
-36.99999651,-9.79330700
-36.49999653,-9.79330700
-35.99999654,-9.84867000
-35.49999655,-9.95632300
-34.99999657,-10.01169000
-34.49999658,-10.01169000
-33.99999660,-9.95939900
-33.49999661,-9.86220500
-32.99999662,-9.75516700
-32.49999664,-9.64689900
-31.99999665,-9.64136300
-31.49999667,-9.72748500
-30.99999668,-9.94463500
-30.49999669,-10.27990000
-29.99999671,-10.33218000
-29.49999672,-10.09412000
-28.99999674,-9.92925600
-28.49999675,-9.84313500
-27.99999677,-9.79884200
-27.49999678,-9.82098900
-26.99999679,-9.76870100
-26.49999681,-9.64936000
-25.99999682,-9.64936000
-25.49999684,-9.76870100
-24.99999685,-9.81791200
-24.49999686,-9.78531000
-23.99999688,-9.88988600
-23.49999689,-10.11688000
-22.99999691,-10.17163000
-22.49999692,-10.05290000
-21.99999694,-9.94279000
-21.49999695,-9.84559500
-20.99999696,-9.79330700
-20.49999698,-9.79330700
-19.99999699,-9.85420700
-19.49999701,-9.98400600
-18.99999702,-9.92864100
-18.49999703,-9.69119100
-17.99999705,-9.63582600
-17.49999706,-9.76562400
-16.99999708,-9.82344900
-16.49999709,-9.81237700
-15.99999710,-9.80745600
-15.49999712,-9.79638200
-14.99999713,-9.85113100
-14.49999715,-9.97047100
-13.99999716,-9.96739700
-13.49999718,-9.83759800
-12.99999719,-9.83452200
-12.49999720,-9.95386200
-11.99999722,-10.01169000
-11.49999723,-10.01169000
-10.99999725,-9.95632300
-10.49999726,-9.84867000
-9.99999727,-9.79884200
-9.49999729,-9.82098900
-8.99999730,-9.76316400
-8.49999732,-9.62229300
-7.99999733,-9.72933000
-7.49999735,-10.07566000
-6.99999736,-10.19070000
-6.49999737,-10.08305000
-5.99999739,-9.86035800
-5.49999740,-9.52509800
-4.99999742,-9.47280900
-4.49999743,-9.71087600
-3.99999744,-9.87881400
-3.49999746,-9.97600800
-2.99999747,-9.97293300
-2.49999749,-9.86466500
-1.99999750,-9.75762700
-1.49999752,-9.66043300
-0.99999753,-9.61122000
-0.49999754,-9.62229300
0.00000244,-9.62229300
0.50000243,-9.61122000
1.00000241,-9.66596900
1.50000240,-9.78531000
2.00000239,-9.77977300
2.50000237,-9.63890200
3.00000236,-9.68811500
3.50000234,-9.91510800
4.00000233,-10.02522000
4.50000232,-10.01415000
5.00000230,-9.95939900
5.50000229,-9.86220500
6.00000227,-9.75516700
6.50000226,-9.64689900
7.00000224,-9.64936000
7.50000223,-9.76870100
8.00000222,-9.82098900
8.50000220,-9.79884200
9.00000219,-9.85420700
9.50000217,-9.98400600
10.00000216,-9.92864100
10.50000215,-9.69119100
11.00000213,-9.63336600
11.50000212,-9.75209100
12.00000210,-9.86466500
12.50000209,-9.97293300
13.00000207,-9.96739700
13.50000206,-9.83759800
14.00000205,-9.83759800
14.50000203,-9.96739700
15.00000202,-9.96739700
15.50000200,-9.83759800
16.00000199,-9.83206100
16.50000198,-9.94033000
17.00000196,-10.05290000
17.50000195,-10.17163000
18.00000193,-10.11688000
18.50000192,-9.88988600
19.00000191,-9.77977300
19.50000189,-9.79084600
20.00000188,-9.84559500
20.50000186,-9.94279000
21.00000185,-10.04983000
21.50000183,-10.15810000
22.00000182,-10.16117000
22.50000181,-10.06398000
23.00000179,-9.90157400
23.50000178,-9.68565500
24.00000176,-9.63336600
24.50000175,-9.75209100
25.00000174,-9.86466500
25.50000172,-9.97293300
26.00000171,-9.96739700
26.50000169,-9.83759800
27.00000168,-9.83452200
27.50000166,-9.95386200
28.00000165,-10.00861000
28.50000164,-9.99753900
29.00000162,-9.99507800
29.50000161,-9.99507800
30.00000159,-10.00062000
30.50000158,-10.02215000
31.00000157,-9.91818300
31.50000155,-9.70164800
32.00000154,-9.59215000
32.50000152,-9.59215000
33.00000151,-9.70472400
33.50000150,-9.93171700
34.00000148,-9.98400600
34.50000147,-9.85420700
35.00000145,-9.79638200
35.50000144,-9.80745600
36.00000142,-9.80745600
36.50000141,-9.79638200
37.00000140,-9.85420700
37.50000138,-9.98400600
38.00000137,-9.92864100
38.50000135,-9.69119100
39.00000134,-9.63336600
39.50000133,-9.75209100
40.00000131,-9.86220500
40.50000130,-9.95939900
41.00000128,-10.01415000
41.50000127,-10.02522000
42.00000125,-9.91264700
42.50000124,-9.67458200
43.00000123,-9.67150600
43.50000121,-9.89849900
44.00000120,-10.06398000
44.50000118,-10.16117000
45.00000117,-10.15563000
45.50000116,-10.03629000
46.00000114,-9.98154500
46.50000113,-9.99261800
47.00000111,-9.99507800
47.50000110,-9.99507800
48.00000108,-9.99507800
48.50000107,-9.99507800
49.00000106,-10.00062000
49.50000104,-10.02215000
50.00000103,-9.91510800
50.50000101,-9.68811500
51.00000100,-9.63336600
51.50000099,-9.75209100
52.00000097,-9.86466500
52.50000096,-9.97293300
53.00000094,-9.97047100
53.50000093,-9.85113100
54.00000092,-9.79638200
54.50000090,-9.80745600
55.00000089,-9.80437900
55.50000087,-9.78284900
56.00000086,-9.88435100
56.50000084,-10.08920000
57.00000083,-10.25467000
57.50000082,-10.37340000
58.00000080,-10.26083000
58.50000079,-9.91449300
59.00000077,-9.80745600
59.50000076,-9.94832700
60.00000075,-10.01415000
60.50000073,-10.02522000
61.00000072,-9.91818300
61.50000070,-9.70164800
62.00000069,-9.59461100
62.50000067,-9.60568300
63.00000066,-9.66350800
63.50000065,-9.77116100
64.00000063,-9.82344900
64.50000062,-9.81237700
65.00000060,-9.81791200
65.50000059,-9.85113100
66.00000058,-9.69180600
66.50000056,-9.35654400
67.00000055,-9.24397100
67.50000053,-9.35162400
68.00000052,-9.56877400
68.50000051,-9.88188800
69.00000049,-10.03629000
69.50000048,-10.00308000
70.00000046,-9.99753900
70.50000045,-10.00861000
71.00000043,-9.95632300
71.50000042,-9.84867000
72.00000041,-9.79638200
72.50000039,-9.80745600
73.00000038,-9.81237700
73.50000036,-9.82344900
74.00000035,-9.76562400
74.50000034,-9.63582600
75.00000032,-9.68811500
75.50000031,-9.91510800
76.00000029,-10.02768000
76.50000028,-10.02768000
77.00000026,-9.91818300
77.50000025,-9.70164800
78.00000024,-9.60014700
78.50000022,-9.63275100
79.00000021,-9.58353800
79.50000019,-9.46419700
80.00000018,-9.45866100
80.50000017,-9.55585600
81.00000015,-9.72133400
81.50000014,-9.94832700
82.00000012,-9.93971300
82.50000011,-9.68011800
83.00000010,-9.67458200
83.50000008,-9.91264700
84.00000007,-10.02768000
84.50000005,-10.02768000
85.00000004,-9.91264700
85.50000002,-9.67458200
86.00000001,-9.67704200
86.50000000,-9.92618100
86.99999998,-9.98092900
87.49999997,-9.84005800
87.99999995,-9.83759800
88.49999994,-9.96739700
88.99999993,-9.96739700
89.49999991,-9.83759800
89.99999990,-9.83452200
90.49999988,-9.95386200
90.99999987,-10.00861000
91.49999985,-9.99753900
91.99999984,-9.99507800
92.49999983,-9.99507800
92.99999981,-9.99753900
93.49999980,-10.00861000
93.99999978,-9.96186000
94.49999977,-9.87573700
94.99999976,-9.71333600
95.49999974,-9.48634300
95.99999973,-9.48634300
96.49999971,-9.71333600
96.99999970,-9.88127400
97.49999969,-9.98954200
97.99999967,-9.92618100
98.49999966,-9.67704200
98.99999964,-9.67150600
99.49999963,-9.89849900
99.99999961,-10.06090000
100.49999960,-10.14702000
100.99999959,-10.19685000
101.49999957,-10.19685000
101.99999956,-10.14456000
102.49999954,-10.04737000
102.99999953,-9.94033000
103.49999952,-9.83206100
103.99999950,-9.83452200
104.49999949,-9.95386200
104.99999947,-10.01415000
105.49999946,-10.02522000
105.99999944,-9.91510800
106.49999943,-9.68811500
106.99999942,-9.63336600
107.49999940,-9.75209100
107.99999939,-9.86774200
108.49999937,-9.98646600
108.99999936,-9.93171700
109.49999935,-9.70472400
109.99999933,-9.59768700
110.49999932,-9.61921700
110.99999930,-9.61921700
111.49999929,-9.59768700
111.99999927,-9.69918700
112.49999926,-9.90403500
112.99999925,-10.06951000
113.49999923,-10.18824000
113.99999922,-10.07566000
114.49999920,-9.72933000
114.99999919,-9.61983200
115.49999918,-9.74963100
115.99999916,-9.86774200
116.49999915,-9.98646600
116.99999913,-9.93171700
117.49999912,-9.70472400
117.99999911,-9.59461100
118.49999909,-9.60568300
118.99999908,-9.66043300
119.49999906,-9.75762700
119.99999905,-9.86220500
120.49999903,-9.95939900
120.99999902,-10.00861000
121.49999901,-9.99753900
121.99999899,-9.99753900
122.49999898,-10.00861000
122.99999896,-9.95386200
123.49999895,-9.83452200
123.99999894,-9.83452200
124.49999892,-9.95386200
124.99999891,-10.01415000
125.49999889,-10.02522000
125.99999888,-9.91818300
126.49999886,-9.70164800
126.99999885,-9.59461100
127.49999884,-9.60568300
127.99999882,-9.65797200
128.49999881,-9.74409400
128.99999879,-9.90342000
129.49999878,-10.11934000
129.99999877,-10.16917000
130.49999875,-10.03937000
130.99999874,-9.98154500
131.49999872,-9.99261800
131.99999871,-9.99753900
132.49999870,-10.00861000
132.99999868,-9.95939900
133.49999867,-9.86220500
133.99999865,-9.75762700
134.49999864,-9.66043300
134.99999862,-9.60814500
135.49999861,-9.60814500
135.99999860,-9.66043300
136.49999858,-9.75762700
136.99999857,-9.86774200
137.49999855,-9.98646600
137.99999854,-9.92864100
138.49999853,-9.69119100
138.99999851,-9.63029000
139.49999850,-9.73855800
139.99999848,-9.90342000
140.49999847,-10.11934000
140.99999845,-10.17163000
141.49999844,-10.05290000
141.99999843,-9.94586600
142.49999841,-9.85912800
142.99999840,-9.75762700
143.49999838,-9.66043300
143.99999837,-9.60260800
144.49999836,-9.58107800
144.99999834,-9.74286400
145.49999833,-10.07812000
145.99999831,-10.18824000
146.49999830,-10.06951000
146.99999829,-9.90403500
147.49999827,-9.69918700
147.99999826,-9.59768700
148.49999824,-9.61921700
148.99999823,-9.62229300
149.49999821,-9.61122000
149.99999820,-9.66043300
150.49999819,-9.75762700
150.99999817,-9.86220500
151.49999816,-9.95939900
151.99999814,-10.00861000
152.49999813,-9.99753900
152.99999812,-10.00062000
153.49999810,-10.02215000
153.99999809,-9.91264700
154.49999807,-9.67458200
154.99999806,-9.67150600
155.49999804,-9.89849900
155.99999803,-10.06398000
156.49999802,-10.16117000
156.99999800,-10.16117000
157.49999799,-10.06398000
157.99999797,-9.90403500
158.49999796,-9.69918700
158.99999795,-9.59768700
159.49999793,-9.61921700
159.99999792,-9.61921700
160.49999790,-9.59768700
160.99999789,-9.70164800
161.49999787,-9.91818300
161.99999786,-10.02522000
162.49999785,-10.01415000
162.99999783,-9.95386200
163.49999782,-9.83452200
163.99999780,-9.83759800
164.49999779,-9.96739700
164.99999778,-9.97293300
165.49999776,-9.86466500
165.99999775,-9.75516700
166.49999773,-9.64689900
166.99999772,-9.64689900
167.49999771,-9.75516700
167.99999769,-9.86466500
168.49999768,-9.97293300
168.99999766,-9.97293300
169.49999765,-9.86466500
169.99999763,-9.75516700
170.49999762,-9.64689900
170.99999761,-9.64382400
171.49999759,-9.74101800
171.99999758,-9.90342000
172.49999756,-10.11934000
172.99999755,-10.17163000
173.49999754,-10.05290000
173.99999752,-9.94033000
174.49999751,-9.83206100
174.99999749,-9.83759800
175.49999748,-9.96739700
175.99999746,-9.96493600
176.49999745,-9.82406500
176.99999744,-9.87881400
177.49999742,-10.12795000
177.99999741,-10.12795000
178.49999739,-9.87881400
178.99999738,-9.82098900
179.49999737,-9.95078800
179.99999735,-10.00861000
180.49999734,-9.99753900
180.99999732,-10.00062000
181.49999731,-10.02215000
181.99999730,-9.91510800
182.49999728,-9.68811500
182.99999727,-9.63336600
183.49999725,-9.75209100
183.99999724,-9.86220500
184.49999722,-9.95939900
184.99999721,-10.01415000
185.49999720,-10.02522000
185.99999718,-9.91510800
186.49999717,-9.68811500
186.99999715,-9.63336600
187.49999714,-9.75209100
187.99999713,-9.86220500
188.49999711,-9.95939900
188.99999710,-10.01169000
189.49999708,-10.01169000
189.99999707,-9.95939900
190.49999705,-9.86220500
190.99999704,-9.75516700
191.49999703,-9.64689900
191.99999701,-9.64689900
192.49999700,-9.75516700
192.99999698,-9.86774200
193.49999697,-9.98646600
193.99999696,-9.92864100
194.49999694,-9.69119100
194.99999693,-9.63336600
195.49999691,-9.75209100
195.99999690,-9.86466500
196.49999689,-9.97293300
196.99999687,-9.96739700
197.49999686,-9.83759800
197.99999684,-9.83759800
198.49999683,-9.96739700
198.99999681,-9.96739700
199.49999680,-9.83759800
199.99999679,-9.83759800
200.49999677,-9.96739700
200.99999676,-9.97293300
201.49999674,-9.86466500
201.99999673,-9.75516700
202.49999672,-9.64689900
202.99999670,-9.64382400
203.49999669,-9.74101800
203.99999667,-9.90342000
204.49999666,-10.11934000
204.99999664,-10.16917000
205.49999663,-10.03937000
205.99999662,-9.98154500
206.49999660,-9.99261800
206.99999659,-9.99261800
207.49999657,-9.98154500
207.99999656,-10.03076000
208.49999655,-10.12795000
208.99999653,-10.24053000
209.49999652,-10.37033000
209.99999650,-10.26329000
210.49999649,-9.92802600
210.99999648,-9.76624000
211.49999646,-9.78777000
211.99999645,-9.84867000
212.49999643,-9.95632300
212.99999642,-10.00861000
213.49999640,-9.99753900
213.99999639,-9.99507800
214.49999638,-9.99507800
214.99999636,-9.99507800
215.49999635,-9.99507800
215.99999633,-9.99261800
216.49999632,-9.98154500
216.99999631,-10.04183000
217.49999629,-10.18270000
217.99999628,-10.07812000
218.49999626,-9.74286400
218.99999625,-9.57800100
219.49999623,-9.58907400
219.99999622,-9.70472400
220.49999621,-9.93171700
220.99999619,-9.98646600
221.49999618,-9.86774200
221.99999616,-9.75209100
222.49999615,-9.63336600
222.99999614,-9.68811500
223.49999612,-9.91510800
223.99999611,-10.01968000
224.49999609,-9.98708100
224.99999608,-10.04183000
225.49999606,-10.18270000
225.99999605,-10.07566000
226.49999604,-9.72933000
226.99999602,-9.61983200
227.49999601,-9.74963100
227.99999599,-9.86220500
228.49999598,-9.95939900
228.99999597,-10.01169000
229.49999595,-10.01169000
229.99999594,-9.95386200
230.49999592,-9.83452200
230.99999591,-9.83452200
231.49999590,-9.95386200
231.99999588,-10.00861000
232.49999587,-9.99753900
232.99999585,-9.99753900
233.49999584,-10.00861000
233.99999582,-9.95939900
234.49999581,-9.86220500
234.99999580,-9.75209100
235.49999578,-9.63336600
235.99999577,-9.68811500
236.49999575,-9.91510800
236.99999574,-10.02522000
237.49999573,-10.01415000
237.99999571,-9.95632300
238.49999570,-9.84867000
238.99999568,-9.79884200
239.49999567,-9.82098900
239.99999565,-9.76562400
240.49999564,-9.63582600
240.99999563,-9.69119100
241.49999561,-9.92864100
241.99999560,-9.98400600
242.49999558,-9.85420700
242.99999557,-9.79330700
243.49999556,-9.79330700
243.99999554,-9.85113100
244.49999553,-9.97047100
244.99999551,-9.97293300
245.49999550,-9.86466500
245.99999549,-9.75516700
246.49999547,-9.64689900
246.99999546,-9.65243500
247.49999544,-9.78223300
247.99999543,-9.77977300
248.49999541,-9.63890200
248.99999540,-9.69119100
249.49999539,-9.92864100
249.99999537,-9.98400600
250.49999536,-9.85420700
250.99999534,-9.79330700
251.49999533,-9.79330700
251.99999532,-9.85113100
252.49999530,-9.97047100
252.99999529,-9.97047100
253.49999527,-9.85113100
253.99999526,-9.79884200
254.49999524,-9.82098900
254.99999523,-9.76562400
255.49999522,-9.63582600
255.99999520,-9.68811500
256.49999519,-9.91510800
256.99999517,-10.02768000
257.49999516,-10.02768000
257.99999515,-9.91510800
258.49999513,-9.68811500
258.99999512,-9.63336600
259.49999510,-9.75209100
259.99999509,-9.86466500
260.49999508,-9.97293300
260.99999506,-9.97293300
261.49999505,-9.86466500
261.99999503,-9.75516700
262.49999502,-9.64689900
262.99999500,-9.64382400
263.49999499,-9.74101800
263.99999498,-9.90342000
264.49999496,-10.11934000
264.99999495,-10.17163000
265.49999493,-10.05290000
265.99999492,-9.94279000
266.49999491,-9.84559500
266.99999489,-9.79638200
267.49999488,-9.80745600
267.99999486,-9.81237700
268.49999485,-9.82344900
268.99999483,-9.76870100
269.49999482,-9.64936000
269.99999481,-9.64936000
270.49999479,-9.76870100
270.99999478,-9.82652600
271.49999476,-9.82652600
271.99999475,-9.76562400
272.49999474,-9.63582600
272.99999472,-9.69119100
273.49999471,-9.92864100
273.99999469,-9.98400600
274.49999468,-9.85420700
274.99999466,-9.79638200
275.49999465,-9.80745600
275.99999464,-9.80745600
276.49999462,-9.79638200
276.99999461,-9.85113100
277.49999459,-9.97047100
277.99999458,-9.97047100
278.49999457,-9.85113100
278.99999455,-9.79638200
279.49999454,-9.80745600
279.99999452,-9.80991600
280.49999451,-9.80991600
280.99999450,-9.81545200
281.49999448,-9.83698400
281.99999447,-9.72748500
282.49999445,-9.48941900
282.99999444,-9.48634300
283.49999442,-9.71333600
283.99999441,-9.87881400
