Time,Channel B
(ns),(mV)

-100.99999470,-9.64689900
-100.49999472,-9.75516700
-99.99999473,-9.86466500
-99.49999474,-9.97293300
-98.99999476,-9.97293300
-98.49999477,-9.86466500
-97.99999479,-9.75516700
-97.49999480,-9.64689900
-96.99999481,-9.64689900
-96.49999483,-9.75516700
-95.99999484,-9.86220500
-95.49999486,-9.95939900
-94.99999487,-10.00861000
-94.49999488,-9.99753900
-93.99999490,-9.99507800
-93.49999491,-9.99507800
-92.99999493,-9.99507800
-92.49999494,-9.99507800
-91.99999496,-9.99753900
-91.49999497,-10.00861000
-90.99999498,-9.95632300
-90.49999500,-9.84867000
-89.99999501,-9.79638200
-89.49999503,-9.80745600
-88.99999504,-9.80745600
-88.49999505,-9.79638200
-87.99999507,-9.84867000
-87.49999508,-9.95632300
-86.99999510,-10.00861000
-86.49999511,-9.99753900
-85.99999513,-9.99261800
-85.49999514,-9.98154500
-84.99999515,-10.03629000
-84.49999517,-10.15563000
-83.99999518,-10.15810000
-83.49999520,-10.04983000
-82.99999521,-9.94586600
-82.49999522,-9.85912800
-81.99999524,-9.75762700
-81.49999525,-9.66043300
-80.99999527,-9.60568300
-80.49999528,-9.59461100
-79.99999529,-9.70472400
-79.49999531,-9.93171700
-78.99999532,-9.98092900
-78.49999534,-9.84005800
-77.99999535,-9.83452200
-77.49999537,-9.95386200
-76.99999538,-10.01415000
-76.49999539,-10.02522000
-75.99999541,-9.90957200
-75.49999542,-9.66104800
-74.99999544,-9.72133400
-74.49999545,-10.10027000
-73.99999546,-10.10027000
-73.49999548,-9.72133400
-72.99999549,-9.66104800
-72.49999551,-9.90957200
-71.99999552,-10.02215000
-71.49999554,-10.00062000
-70.99999555,-9.99753900
-70.49999556,-10.00861000
-69.99999558,-9.95632300
-69.49999559,-9.84867000
-68.99999561,-9.79638200
-68.49999562,-9.80745600
-67.99999563,-9.80745600
-67.49999565,-9.79638200
-66.99999566,-9.85420700
-66.49999568,-9.98400600
-65.99999569,-9.92864100
-65.49999571,-9.69119100
-64.99999572,-9.63336600
-64.49999573,-9.75209100
-63.99999575,-9.86466500
-63.49999576,-9.97293300
-62.99999578,-9.96739700
-62.49999579,-9.83759800
-61.99999580,-9.83759800
-61.49999582,-9.96739700
-60.99999583,-9.96739700
-60.49999585,-9.83759800
-59.99999586,-9.83206100
-59.49999587,-9.94033000
-58.99999589,-10.05536000
-58.49999590,-10.18516000
-57.99999592,-10.07259000
-57.49999593,-9.71579600
-56.99999595,-9.66104800
-56.49999596,-9.90957200
-55.99999597,-10.02522000
-55.49999599,-10.01415000
-54.99999600,-9.95939900
-54.49999602,-9.86220500
-53.99999603,-9.75209100
-53.49999604,-9.63336600
-52.99999606,-9.68811500
-52.49999607,-9.91510800
-51.99999609,-10.02215000
-51.49999610,-10.00062000
-50.99999612,-9.99507800
-50.49999613,-9.99507800
-49.99999614,-9.99753900
-49.49999616,-10.00861000
-48.99999617,-9.95386200
-48.49999619,-9.83452200
-47.99999620,-9.84005800
-47.49999621,-9.98092900
-46.99999623,-9.92864100
-46.49999624,-9.69119100
-45.99999626,-9.63890200
-45.49999627,-9.77977300
-44.99999628,-9.78223300
-44.49999630,-9.65243500
-43.99999631,-9.64689900
-43.49999633,-9.75516700
-42.99999634,-9.86466500
-42.49999636,-9.97293300
-41.99999637,-9.97047100
-41.49999638,-9.85113100
-40.99999640,-9.79330700
-40.49999641,-9.79330700
-39.99999643,-9.85113100
-39.49999644,-9.97047100
-38.99999645,-9.96739700
-38.49999647,-9.83759800
-37.99999648,-9.83452200
-37.49999650,-9.95386200
-36.99999651,-10.00861000
-36.49999653,-9.99753900
-35.99999654,-9.99507800
-35.49999655,-9.99507800
-34.99999657,-10.00062000
-34.49999658,-10.02215000
-33.99999660,-9.91510800
-33.49999661,-9.68811500
-32.99999662,-9.63336600
-32.49999664,-9.75209100
-31.99999665,-9.86774200
-31.49999667,-9.98646600
-30.99999668,-9.93417800
-30.49999669,-9.71825700
-29.99999671,-9.55585600
-29.49999672,-9.45866100
-28.99999674,-9.46173700
-28.49999675,-9.57000400
-27.99999677,-9.67150600
-27.49999678,-9.74655400
-26.99999679,-9.90649500
-26.49999681,-10.13349000
-25.99999682,-10.13041000
-25.49999684,-9.89234600
-24.99999685,-9.77977300
-24.49999686,-9.79084600
-23.99999688,-9.85420700
-23.49999689,-9.98400600
-22.99999691,-9.92618100
-22.49999692,-9.67704200
-21.99999694,-9.67458200
-21.49999695,-9.91264700
-20.99999696,-10.02215000
-20.49999698,-10.00062000
-19.99999699,-9.99507800
-19.49999701,-9.99507800
-18.99999702,-9.99753900
-18.49999703,-10.00861000
-17.99999705,-9.95632300
-17.49999706,-9.84867000
-16.99999708,-9.79330700
-16.49999709,-9.79330700
-15.99999710,-9.85420700
-15.49999712,-9.98400600
-14.99999713,-9.92618100
-14.49999715,-9.67704200
-13.99999716,-9.68011800
-13.49999718,-9.93971300
-12.99999719,-9.94525100
-12.49999720,-9.70718500
-11.99999722,-9.59215000
-11.49999723,-9.59215000
-10.99999725,-9.70472400
-10.49999726,-9.93171700
-9.99999727,-9.98092900
-9.49999729,-9.84005800
-8.99999730,-9.83206100
-8.49999732,-9.94033000
-7.99999733,-10.04983000
-7.49999735,-10.15810000
-6.99999736,-10.15810000
-6.49999737,-10.04983000
-5.99999739,-9.94279000
-5.49999740,-9.84559500
-4.99999742,-9.79638200
-4.49999743,-9.80745600
-3.99999744,-9.80991600
-3.49999746,-9.80991600
-2.99999747,-9.81237700
-2.49999749,-9.82344900
-1.99999750,-9.76870100
-1.49999752,-9.64936000
-0.99999753,-9.64936000
-0.49999754,-9.76870100
0.00000244,-9.82098900
0.50000243,-9.79884200
1.00000241,-9.84867000
1.50000240,-9.95632300
2.00000239,-10.01169000
2.50000237,-10.01169000
3.00000236,-9.95632300
3.50000234,-9.84867000
4.00000233,-9.79330700
4.50000232,-9.79330700
5.00000230,-9.85420700
5.50000229,-9.98400600
6.00000227,-9.92864100
6.50000226,-9.69119100
7.00000224,-9.63336600
7.50000223,-9.75209100
8.00000222,-9.86220500
8.50000220,-9.95939900
9.00000219,-10.00861000
9.50000217,-9.99753900
10.00000216,-9.99753900
10.50000215,-10.00861000
11.00000213,-9.95386200
11.50000212,-9.83452200
12.00000210,-9.83452200
12.50000209,-9.95386200
13.00000207,-10.01169000
13.50000206,-10.01169000
14.00000205,-9.95632300
14.50000203,-9.84867000
15.00000202,-9.79084600
15.50000200,-9.77977300
16.00000199,-9.88988600
16.50000198,-10.11688000
17.00000196,-10.16917000
17.50000195,-10.03937000
18.00000193,-9.98400600
18.50000192,-10.00615000
19.00000191,-9.95939900
19.50000189,-9.86220500
20.00000188,-9.75516700
20.50000186,-9.64689900
21.00000185,-9.65489600
21.50000183,-9.79576800
22.00000182,-9.74101800
22.50000181,-9.49187900
23.00000179,-9.48634300
23.50000178,-9.71333600
24.00000176,-9.87573700
24.50000175,-9.96186000
25.00000174,-10.01169000
25.50000172,-10.01169000
26.00000171,-9.95632300
26.50000169,-9.84867000
27.00000168,-9.79330700
27.50000166,-9.79330700
28.00000165,-9.84867000
28.50000164,-9.95632300
29.00000162,-10.01415000
29.50000161,-10.02522000
30.00000159,-9.91264700
30.50000158,-9.67458200
31.00000157,-9.67458200
31.50000155,-9.91264700
32.00000154,-10.02215000
32.50000152,-10.00062000
33.00000151,-9.99507800
33.50000150,-9.99507800
34.00000148,-9.99753900
34.50000147,-10.00861000
35.00000145,-9.95386200
35.50000144,-9.83452200
36.00000142,-9.83759800
36.50000141,-9.96739700
37.00000140,-9.97293300
37.50000138,-9.86466500
38.00000137,-9.75762700
38.50000135,-9.66043300
39.00000134,-9.61122000
39.50000133,-9.62229300
40.00000131,-9.61921700
40.50000130,-9.59768700
41.00000128,-9.70164800
41.50000127,-9.91818300
42.00000125,-10.02522000
42.50000124,-10.01415000
43.00000123,-9.95386200
43.50000121,-9.83452200
44.00000120,-9.83452200
44.50000118,-9.95386200
45.00000117,-10.01415000
45.50000116,-10.02522000
46.00000114,-9.91510800
46.50000113,-9.68811500
47.00000111,-9.63336600
47.50000110,-9.75209100
48.00000108,-9.86774200
48.50000107,-9.98646600
49.00000106,-9.92864100
49.50000104,-9.69119100
50.00000103,-9.63336600
50.50000101,-9.75209100
51.00000100,-9.86466500
51.50000099,-9.97293300
52.00000097,-9.96739700
52.50000096,-9.83759800
53.00000094,-9.84005800
53.50000093,-9.98092900
54.00000092,-9.93417800
54.50000090,-9.71825700
55.00000089,-9.55339500
55.50000087,-9.44512700
56.00000086,-9.50049200
56.50000084,-9.71641300
57.00000083,-9.88127400
57.50000082,-9.98954200
58.00000080,-9.92618100
58.50000079,-9.67704200
59.00000077,-9.67458200
59.50000076,-9.91264700
60.00000075,-10.02215000
60.50000073,-10.00062000
61.00000072,-10.00062000
61.50000070,-10.02215000
62.00000069,-9.91510800
62.50000067,-9.68811500
63.00000066,-9.63336600
63.50000065,-9.75209100
64.00000063,-9.86774200
64.50000062,-9.98646600
65.00000060,-9.93171700
65.50000059,-9.70472400
66.00000058,-9.59461100
66.50000056,-9.60568300
67.00000055,-9.66596900
67.50000053,-9.78531000
68.00000052,-9.78223300
68.50000051,-9.65243500
69.00000049,-9.64936000
69.50000048,-9.76870100
70.00000046,-9.82344900
70.50000045,-9.81237700
71.00000043,-9.80745600
71.50000042,-9.79638200
72.00000041,-9.84313500
72.50000039,-9.92925600
73.00000038,-10.09166000
73.50000036,-10.31865000
74.00000035,-10.31557000
74.50000034,-10.07751000
75.00000032,-9.96801100
75.50000031,-9.98954200
76.00000029,-9.99507800
76.50000028,-9.99507800
77.00000026,-10.00062000
77.50000025,-10.02215000
78.00000024,-9.91510800
78.50000022,-9.68811500
79.00000021,-9.63336600
79.50000019,-9.75209100
80.00000018,-9.86220500
80.50000017,-9.95939900
81.00000015,-10.01169000
81.50000014,-10.01169000
82.00000012,-9.95632300
82.50000011,-9.84867000
83.00000010,-9.79084600
83.50000008,-9.77977300
84.00000007,-9.88681100
84.50000005,-10.10335000
85.00000004,-10.21284000
85.50000002,-10.21284000
86.00000001,-10.10027000
86.50000000,-9.87327700
86.99999998,-9.82098900
87.49999997,-9.95078800
87.99999995,-10.01169000
88.49999994,-10.01169000
88.99999993,-9.95939900
89.49999991,-9.86220500
89.99999990,-9.75516700
90.49999988,-9.64689900
90.99999987,-9.64382400
91.49999985,-9.74101800
91.99999984,-9.90096000
92.49999983,-10.10581000
92.99999981,-10.21592000
93.49999980,-10.22699000
93.99999978,-10.06213000
94.49999977,-9.72687000
94.99999976,-9.61983200
95.49999974,-9.74963100
95.99999973,-9.86466500
96.49999971,-9.97293300
96.99999970,-9.97047100
97.49999969,-9.85113100
97.99999967,-9.79884200
98.49999966,-9.82098900
98.99999964,-9.76562400
99.49999963,-9.63582600
99.99999961,-9.68811500
100.49999960,-9.91510800
100.99999959,-10.02768000
101.49999957,-10.02768000
101.99999956,-9.91510800
102.49999954,-9.68811500
102.99999953,-9.63336600
103.49999952,-9.75209100
103.99999950,-9.86220500
104.49999949,-9.95939900
104.99999947,-10.01169000
105.49999946,-10.01169000
105.99999944,-9.95632300
106.49999943,-9.84867000
106.99999942,-9.79330700
107.49999940,-9.79330700
107.99999939,-9.84867000
108.49999937,-9.95632300
108.99999936,-10.01169000
109.49999935,-10.01169000
109.99999933,-9.95632300
110.49999932,-9.84867000
110.99999930,-9.79330700
111.49999929,-9.79330700
111.99999927,-9.84867000
112.49999926,-9.95632300
112.99999925,-10.01169000
113.49999923,-10.01169000
113.99999922,-9.95632300
114.49999920,-9.84867000
114.99999919,-9.79330700
115.49999918,-9.79330700
115.99999916,-9.84867000
116.49999915,-9.95632300
116.99999913,-10.01169000
117.49999912,-10.01169000
117.99999911,-9.95632300
118.49999909,-9.84867000
118.99999908,-9.79330700
119.49999906,-9.79330700
119.99999905,-9.84867000
120.49999903,-9.95632300
120.99999902,-10.00861000
121.49999901,-9.99753900
121.99999899,-9.99507800
122.49999898,-9.99507800
122.99999896,-9.99507800
123.49999895,-9.99507800
123.99999894,-9.99753900
124.49999892,-10.00861000
124.99999891,-9.96186000
125.49999889,-9.87573700
125.99999888,-9.71333600
126.49999886,-9.48634300
126.99999885,-9.48941900
127.49999884,-9.72748500
127.99999882,-9.84005800
128.49999881,-9.82898600
128.99999879,-9.76870100
129.49999878,-9.64936000
129.99999877,-9.64936000
130.49999875,-9.76870100
130.99999874,-9.82652600
131.49999872,-9.82652600
131.99999871,-9.76870100
132.49999870,-9.64936000
132.99999868,-9.65243500
133.49999867,-9.78223300
133.99999865,-9.78531000
134.49999864,-9.66596900
134.99999862,-9.60568300
135.49999861,-9.59461100
135.99999860,-9.70472400
136.49999858,-9.93171700
136.99999857,-9.98092900
137.49999855,-9.84005800
137.99999854,-9.83759800
138.49999853,-9.96739700
138.99999851,-9.96739700
139.49999850,-9.83759800
139.99999848,-9.83759800
140.49999847,-9.96739700
140.99999845,-9.97600800
141.49999844,-9.87881400
141.99999843,-9.71641300
142.49999841,-9.50049200
142.99999840,-9.44512700
143.49999838,-9.55339500
143.99999837,-9.71579600
144.49999836,-9.92064400
144.99999834,-10.02215000
145.49999833,-10.00062000
145.99999831,-10.00062000
146.49999830,-10.02215000
146.99999829,-9.91818300
147.49999827,-9.70164800
147.99999826,-9.59215000
148.49999824,-9.59215000
148.99999823,-9.70718500
149.49999821,-9.94525100
149.99999820,-9.93971300
150.49999819,-9.68011800
150.99999817,-9.67458200
151.49999816,-9.91264700
151.99999814,-10.02522000
152.49999813,-10.01415000
152.99999812,-9.95939900
153.49999810,-9.86220500
153.99999809,-9.75209100
154.49999807,-9.63336600
154.99999806,-9.68811500
155.49999804,-9.91510800
155.99999803,-10.02522000
156.49999802,-10.01415000
156.99999800,-9.95939900
157.49999799,-9.86220500
157.99999797,-9.75516700
158.49999796,-9.64689900
158.99999795,-9.64382400
159.49999793,-9.74101800
159.99999792,-9.90342000
160.49999790,-10.11934000
160.99999789,-10.16917000
161.49999787,-10.03937000
161.99999786,-9.98154500
162.49999785,-9.99261800
162.99999783,-9.99753900
163.49999782,-10.00861000
163.99999780,-9.94832700
164.49999779,-9.80745600
164.99999778,-9.92003000
165.49999776,-10.28789000
165.99999775,-10.29650000
166.49999773,-9.96124500
166.99999772,-9.68934500
167.49999771,-9.49495500
167.99999769,-9.45066500
168.49999768,-9.58046200
168.99999766,-9.63582600
169.49999765,-9.61368100
169.99999763,-9.66043300
170.49999762,-9.75762700
170.99999761,-9.86220500
171.49999759,-9.95939900
171.99999758,-10.00861000
172.49999756,-9.99753900
172.99999755,-9.99753900
173.49999754,-10.00861000
173.99999752,-9.95632300
174.49999751,-9.84867000
174.99999749,-9.79084600
175.49999748,-9.77977300
175.99999746,-9.88988600
176.49999745,-10.11688000
176.99999744,-10.17163000
177.49999742,-10.05290000
177.99999741,-9.94279000
178.49999739,-9.84559500
178.99999738,-9.79330700
179.49999737,-9.79330700
179.99999735,-9.84867000
180.49999734,-9.95632300
180.99999732,-10.01415000
181.49999731,-10.02522000
181.99999730,-9.91510800
182.49999728,-9.68811500
182.99999727,-9.63029000
183.49999725,-9.73855800
183.99999724,-9.90649500
184.49999722,-10.13349000
184.99999721,-10.13349000
185.49999720,-9.90649500
185.99999718,-9.74101800
186.49999717,-9.64382400
186.99999715,-9.65243500
187.49999714,-9.78223300
187.99999713,-9.77977300
188.49999711,-9.63890200
188.99999710,-9.69365100
189.49999708,-9.94279000
189.99999707,-9.94279000
190.49999705,-9.69365100
190.99999704,-9.63336600
191.49999703,-9.75209100
191.99999701,-9.86774200
192.49999700,-9.98646600
192.99999698,-9.93171700
193.49999697,-9.70472400
193.99999696,-9.59461100
194.49999694,-9.60568300
194.99999693,-9.66043300
195.49999691,-9.75762700
195.99999690,-9.86466500
196.49999689,-9.97293300
196.99999687,-9.97293300
197.49999686,-9.86466500
197.99999684,-9.75762700
198.49999683,-9.66043300
198.99999681,-9.60568300
199.49999680,-9.59461100
199.99999679,-9.70472400
200.49999677,-9.93171700
200.99999676,-9.98646600
201.49999674,-9.86774200
201.99999673,-9.75516700
202.49999672,-9.64689900
202.99999670,-9.64689900
203.49999669,-9.75516700
203.99999667,-9.86466500
204.49999666,-9.97293300
204.99999664,-9.97293300
205.49999663,-9.86466500
205.99999662,-9.75209100
206.49999660,-9.63336600
206.99999659,-9.68811500
207.49999657,-9.91510800
207.99999656,-10.02522000
208.49999655,-10.01415000
208.99999653,-9.95386200
209.49999652,-9.83452200
209.99999650,-9.84005800
210.49999649,-9.98092900
210.99999648,-9.92864100
211.49999646,-9.69119100
211.99999645,-9.63336600
212.49999643,-9.75209100
212.99999642,-9.86466500
213.49999640,-9.97293300
213.99999639,-9.97047100
214.49999638,-9.85113100
214.99999636,-9.79330700
215.49999635,-9.79330700
215.99999633,-9.84867000
216.49999632,-9.95632300
216.99999631,-10.01169000
217.49999629,-10.01169000
217.99999628,-9.95386200
218.49999626,-9.83452200
218.99999625,-9.83452200
219.49999623,-9.95386200
219.99999622,-10.00861000
220.49999621,-9.99753900
220.99999619,-9.99753900
221.49999618,-10.00861000
221.99999616,-9.95386200
222.49999615,-9.83452200
222.99999614,-9.83452200
223.49999612,-9.95386200
223.99999611,-10.00615000
224.49999609,-9.98400600
224.99999608,-10.03937000
225.49999606,-10.16917000
225.99999605,-10.11688000
226.49999604,-9.88988600
226.99999602,-9.78284900
227.49999601,-9.80437900
227.99999599,-9.80745600
228.49999598,-9.79638200
228.99999597,-9.85113100
229.49999595,-9.97047100
229.99999594,-9.97047100
230.49999592,-9.85113100
230.99999591,-9.79330700
231.49999590,-9.79330700
231.99999588,-9.84867000
232.49999587,-9.95632300
232.99999585,-10.01169000
233.49999584,-10.01169000
233.99999582,-9.95632300
234.49999581,-9.84867000
234.99999580,-9.79330700
235.49999578,-9.79330700
235.99999577,-9.84867000
236.49999575,-9.95632300
236.99999574,-10.01169000
237.49999573,-10.01169000
237.99999571,-9.96186000
238.49999570,-9.87573700
238.99999568,-9.71333600
239.49999567,-9.48634300
239.99999565,-9.48941900
240.49999564,-9.72748500
240.99999563,-9.84005800
241.49999561,-9.82898600
241.99999560,-9.76870100
242.49999558,-9.64936000
242.99999557,-9.64936000
243.49999556,-9.76870100
243.99999554,-9.82098900
244.49999553,-9.79884200
244.99999551,-9.85666800
245.49999550,-9.99753900
245.99999549,-9.89296200
246.49999547,-9.55770100
246.99999546,-9.39283900
247.49999544,-9.40391200
247.99999543,-9.51648500
248.49999541,-9.73302200
248.99999540,-9.84005800
249.49999539,-9.82898600
249.99999537,-9.76562400
250.49999536,-9.63582600
250.99999534,-9.68565500
251.49999533,-9.90157400
251.99999532,-10.06398000
252.49999530,-10.16117000
252.99999529,-10.16117000
253.49999527,-10.06398000
253.99999526,-9.90403500
254.49999524,-9.69918700
254.99999523,-9.59215000
255.49999522,-9.59215000
255.99999520,-9.70164800
256.49999519,-9.91818300
256.99999517,-10.02522000
257.49999516,-10.01415000
257.99999515,-9.95939900
258.49999513,-9.86220500
258.99999512,-9.75516700
259.49999510,-9.64689900
259.99999509,-9.64689900
260.49999508,-9.75516700
260.99999506,-9.86220500
261.49999505,-9.95939900
261.99999503,-10.01169000
262.49999502,-10.01169000
262.99999500,-9.95386200
263.49999499,-9.83452200
263.99999498,-9.83452200
264.49999496,-9.95386200
264.99999495,-10.01415000
265.49999493,-10.02522000
265.99999492,-9.91264700
266.49999491,-9.67458200
266.99999489,-9.67150600
267.49999488,-9.89849900
267.99999486,-10.06398000
268.49999485,-10.16117000
268.99999483,-10.15810000
269.49999482,-10.04983000
269.99999481,-9.94279000
270.49999479,-9.84559500
270.99999478,-9.79330700
271.49999476,-9.79330700
271.99999475,-9.85420700
272.49999474,-9.98400600
272.99999472,-9.92864100
273.49999471,-9.69119100
273.99999469,-9.64136300
274.49999468,-9.79330700
274.99999466,-9.73794300
275.49999465,-9.47834600
275.99999464,-9.52509800
276.49999462,-9.86035800
276.99999461,-10.08305000
277.49999459,-10.19070000
277.99999458,-10.07566000
278.49999457,-9.72933000
278.99999455,-9.62229300
279.49999454,-9.76316400
279.99999452,-9.82652600
280.49999451,-9.82652600
280.99999450,-9.77116100
281.49999448,-9.66350800
281.99999447,-9.60568300
282.49999445,-9.59461100
282.99999444,-9.70164800
283.49999442,-9.91818300
283.99999441,-10.02215000
