Time,Channel B
(ns),(mV)

-100.99999470,-9.59215000
-100.49999472,-9.59215000
-99.99999473,-9.70718500
-99.49999474,-9.94525100
-98.99999476,-9.94279000
-98.49999477,-9.69365100
-97.99999479,-9.63582600
-97.49999480,-9.76562400
-96.99999481,-9.82098900
-96.49999483,-9.79884200
-95.99999484,-9.84867000
-95.49999486,-9.95632300
-94.99999487,-10.01415000
-94.49999488,-10.02522000
-93.99999490,-9.91264700
-93.49999491,-9.67458200
-92.99999493,-9.67150600
-92.49999494,-9.89849900
-91.99999496,-10.06398000
-91.49999497,-10.16117000
-90.99999498,-10.15810000
-90.49999500,-10.04983000
-89.99999501,-9.94279000
-89.49999503,-9.84559500
-88.99999504,-9.79330700
-88.49999505,-9.79330700
-87.99999507,-9.84867000
-87.49999508,-9.95632300
-86.99999510,-10.01169000
-86.49999511,-10.01169000
-85.99999513,-9.95632300
-85.49999514,-9.84867000
-84.99999515,-9.79330700
-84.49999517,-9.79330700
-83.99999518,-9.85113100
-83.49999520,-9.97047100
-82.99999521,-9.97600800
-82.49999522,-9.87881400
-81.99999524,-9.71333600
-81.49999525,-9.48634300
-80.99999527,-9.48941900
-80.49999528,-9.72748500
-79.99999529,-9.83452200
-79.49999531,-9.80191900
-78.99999532,-9.85113100
-78.49999534,-9.97047100
-77.99999535,-9.97047100
-77.49999537,-9.85113100
-76.99999538,-9.79330700
-76.49999539,-9.79330700
-75.99999541,-9.85113100
-75.49999542,-9.97047100
-74.99999544,-9.97047100
-74.49999545,-9.85113100
-73.99999546,-9.79638200
-73.49999548,-9.80745600
-72.99999549,-9.80437900
-72.49999551,-9.78284900
-71.99999552,-9.88988600
-71.49999554,-10.11688000
-70.99999555,-10.17163000
-70.49999556,-10.05290000
-69.99999558,-9.94279000
-69.49999559,-9.84559500
-68.99999561,-9.79330700
-68.49999562,-9.79330700
-67.99999563,-9.85113100
-67.49999565,-9.97047100
-66.99999566,-9.97047100
-66.49999568,-9.85113100
-65.99999569,-9.79638200
-65.49999571,-9.80745600
-64.99999572,-9.80991600
-64.49999573,-9.80991600
-63.99999575,-9.80437900
-63.49999576,-9.78284900
-62.99999578,-9.89542300
-62.49999579,-10.14395000
-61.99999580,-10.08612000
-61.49999582,-9.71887300
-60.99999583,-9.66104800
-60.49999585,-9.90957200
-59.99999586,-10.02215000
-59.49999587,-10.00062000
-58.99999589,-9.99507800
-58.49999590,-9.99507800
-57.99999592,-9.99507800
-57.49999593,-9.99507800
-56.99999595,-9.99507800
-56.49999596,-9.99507800
-55.99999597,-9.99753900
-55.49999599,-10.00861000
-54.99999600,-9.95939900
-54.49999602,-9.86220500
-53.99999603,-9.75516700
-53.49999604,-9.64689900
-52.99999606,-9.64382400
-52.49999607,-9.74101800
-51.99999609,-9.90342000
-51.49999610,-10.11934000
-50.99999612,-10.16917000
-50.49999613,-10.03937000
-49.99999614,-9.98400600
-49.49999616,-10.00615000
-48.99999617,-9.95939900
-48.49999619,-9.86220500
-47.99999620,-9.75516700
-47.49999621,-9.64689900
-46.99999623,-9.64936000
-46.49999624,-9.76870100
-45.99999626,-9.82344900
-45.49999627,-9.81237700
-44.99999628,-9.80745600
-44.49999630,-9.79638200
-43.99999631,-9.84867000
-43.49999633,-9.95632300
-42.99999634,-10.01169000
-42.49999636,-10.01169000
-41.99999637,-9.95386200
-41.49999638,-9.83452200
-40.99999640,-9.83452200
-40.49999641,-9.95386200
-39.99999643,-10.00861000
-39.49999644,-9.99753900
-38.99999645,-9.99753900
-38.49999647,-10.00861000
-37.99999648,-9.95632300
-37.49999650,-9.84867000
-36.99999651,-9.79084600
-36.49999653,-9.77977300
-35.99999654,-9.88988600
-35.49999655,-10.11688000
-34.99999657,-10.17470000
-34.49999658,-10.06644000
-33.99999660,-9.90403500
-33.49999661,-9.69918700
-32.99999662,-9.59461100
-32.49999664,-9.60568300
-31.99999665,-9.65797200
-31.49999667,-9.74409400
-30.99999668,-9.90649500
-30.49999669,-10.13349000
-29.99999671,-10.13041000
-29.49999672,-9.89234600
-28.99999674,-9.77977300
-28.49999675,-9.79084600
-27.99999677,-9.84559500
-27.49999678,-9.94279000
-26.99999679,-10.04983000
-26.49999681,-10.15810000
-25.99999682,-10.15563000
-25.49999684,-10.03629000
-24.99999685,-9.98400600
-24.49999686,-10.00615000
-23.99999688,-9.95078800
-23.49999689,-9.82098900
-22.99999691,-9.87635300
-22.49999692,-10.11380000
-21.99999694,-10.17163000
-21.49999695,-10.05290000
-20.99999696,-9.94033000
-20.49999698,-9.83206100
-19.99999699,-9.83759800
-19.49999701,-9.96739700
-18.99999702,-9.97293300
-18.49999703,-9.86466500
-17.99999705,-9.75516700
-17.49999706,-9.64689900
-16.99999708,-9.64936000
-16.49999709,-9.76870100
-15.99999710,-9.82098900
-15.49999712,-9.79884200
-14.99999713,-9.85113100
-14.49999715,-9.97047100
-13.99999716,-9.96739700
-13.49999718,-9.83759800
-12.99999719,-9.83759800
-12.49999720,-9.96739700
-11.99999722,-9.97047100
-11.49999723,-9.85113100
-10.99999725,-9.79638200
-10.49999726,-9.80745600
-9.99999727,-9.80991600
-9.49999729,-9.80991600
-8.99999730,-9.80745600
-8.49999732,-9.79638200
-7.99999733,-9.84559500
-7.49999735,-9.94279000
-6.99999736,-10.05536000
-6.49999737,-10.18516000
-5.99999739,-10.07259000
-5.49999740,-9.71579600
-4.99999742,-9.66104800
-4.49999743,-9.90957200
-3.99999744,-10.02768000
-3.49999746,-10.02768000
-2.99999747,-9.91264700
-2.49999749,-9.67458200
-1.99999750,-9.67704200
-1.49999752,-9.92618100
-0.99999753,-9.98400600
-0.49999754,-9.85420700
0.00000244,-9.79330700
0.50000243,-9.79330700
1.00000241,-9.85420700
1.50000240,-9.98400600
2.00000239,-9.92864100
2.50000237,-9.69119100
3.00000236,-9.63582600
3.50000234,-9.76562400
4.00000233,-9.82652600
4.50000232,-9.82652600
5.00000230,-9.77116100
5.50000229,-9.66350800
6.00000227,-9.60568300
6.50000226,-9.59461100
7.00000224,-9.69918700
7.50000223,-9.90403500
8.00000222,-10.06090000
8.50000220,-10.14702000
9.00000219,-10.20239000
9.50000217,-10.22392000
10.00000216,-10.06705000
10.50000215,-9.75393700
11.00000213,-9.53986200
11.50000212,-9.44266700
12.00000210,-9.50602800
12.50000209,-9.74347900
13.00000207,-9.79330700
13.50000206,-9.64136300
14.00000205,-9.68811500
14.50000203,-9.91510800
15.00000202,-10.02768000
15.50000200,-10.02768000
16.00000199,-9.90957200
16.50000198,-9.66104800
17.00000196,-9.72133400
17.50000195,-10.10027000
18.00000193,-10.10273000
18.50000192,-9.73486600
19.00000191,-9.61983200
19.50000189,-9.74963100
20.00000188,-9.86220500
20.50000186,-9.95939900
21.00000185,-10.00861000
21.50000183,-9.99753900
22.00000182,-9.99507800
22.50000181,-9.99507800
23.00000179,-9.99507800
23.50000178,-9.99507800
24.00000176,-9.99507800
24.50000175,-9.99507800
25.00000174,-10.00062000
25.50000172,-10.02215000
26.00000171,-9.91818300
26.50000169,-9.70164800
27.00000168,-9.59215000
27.50000166,-9.59215000
28.00000165,-9.70472400
28.50000164,-9.93171700
29.00000162,-9.98092900
29.50000161,-9.84005800
30.00000159,-9.83759800
30.50000158,-9.96739700
31.00000157,-9.97293300
31.50000155,-9.86466500
32.00000154,-9.75209100
32.50000152,-9.63336600
33.00000151,-9.69365100
33.50000150,-9.94279000
34.00000148,-9.93971300
34.50000147,-9.68011800
35.00000145,-9.67458200
35.50000144,-9.91264700
36.00000142,-10.02215000
36.50000141,-10.00062000
37.00000140,-9.99753900
37.50000138,-10.00861000
38.00000137,-9.95386200
38.50000135,-9.83452200
39.00000134,-9.83206100
39.50000133,-9.94033000
40.00000131,-10.04983000
40.50000130,-10.15810000
41.00000128,-10.16117000
41.50000127,-10.06398000
42.00000125,-9.90157400
42.50000124,-9.68565500
43.00000123,-9.63336600
43.50000121,-9.75209100
44.00000120,-9.86220500
44.50000118,-9.95939900
45.00000117,-10.01415000
45.50000116,-10.02522000
46.00000114,-9.91510800
46.50000113,-9.68811500
47.00000111,-9.63336600
47.50000110,-9.75209100
48.00000108,-9.86466500
48.50000107,-9.97293300
49.00000106,-9.97047100
49.50000104,-9.85113100
50.00000103,-9.79638200
50.50000101,-9.80745600
51.00000100,-9.80745600
51.50000099,-9.79638200
52.00000097,-9.84867000
52.50000096,-9.95632300
53.00000094,-10.01415000
53.50000093,-10.02522000
54.00000092,-9.91264700
54.50000090,-9.67458200
55.00000089,-9.67704200
55.50000087,-9.92618100
56.00000086,-9.98400600
56.50000084,-9.85420700
57.00000083,-9.79330700
57.50000082,-9.79330700
58.00000080,-9.84867000
58.50000079,-9.95632300
59.00000077,-10.00615000
59.50000076,-9.98400600
60.00000075,-10.03629000
60.50000073,-10.15563000
61.00000072,-10.15563000
61.50000070,-10.03629000
62.00000069,-9.98400600
62.50000067,-10.00615000
63.00000066,-9.95632300
63.50000065,-9.84867000
64.00000063,-9.79084600
64.50000062,-9.77977300
65.00000060,-9.89234600
65.50000059,-10.13041000
66.00000058,-10.13041000
66.50000056,-9.89234600
67.00000055,-9.77977300
67.50000053,-9.79084600
68.00000052,-9.84867000
68.50000051,-9.95632300
69.00000049,-10.00861000
69.50000048,-9.99753900
70.00000046,-9.99753900
70.50000045,-10.00861000
71.00000043,-9.95386200
71.50000042,-9.83452200
72.00000041,-9.83452200
72.50000039,-9.95386200
73.00000038,-10.01169000
73.50000036,-10.01169000
74.00000035,-9.95632300
74.50000034,-9.84867000
75.00000032,-9.79330700
75.50000031,-9.79330700
76.00000029,-9.84867000
76.50000028,-9.95632300
77.00000026,-10.00861000
77.50000025,-9.99753900
78.00000024,-9.99753900
78.50000022,-10.00861000
79.00000021,-9.95632300
79.50000019,-9.84867000
80.00000018,-9.79084600
80.50000017,-9.77977300
81.00000015,-9.89234600
81.50000014,-10.13041000
82.00000012,-10.13349000
82.50000011,-9.90649500
83.00000010,-9.73855800
83.50000008,-9.63029000
84.00000007,-9.68811500
84.50000005,-9.91510800
85.00000004,-10.02215000
85.50000002,-10.00062000
86.00000001,-9.99507800
86.50000000,-9.99507800
86.99999998,-9.99507800
87.49999997,-9.99507800
87.99999995,-9.99507800
88.49999994,-9.99507800
88.99999993,-9.99753900
89.49999991,-10.00861000
89.99999990,-9.95386200
90.49999988,-9.83452200
90.99999987,-9.83452200
91.49999985,-9.95386200
91.99999984,-10.01169000
92.49999983,-10.01169000
92.99999981,-9.95386200
93.49999980,-9.83452200
93.99999978,-9.84005800
94.49999977,-9.98092900
94.99999976,-9.93171700
95.49999974,-9.70472400
95.99999973,-9.59215000
96.49999971,-9.59215000
96.99999970,-9.70472400
97.49999969,-9.93171700
97.99999967,-9.98400600
98.49999966,-9.85420700
98.99999964,-9.79084600
99.49999963,-9.77977300
99.99999961,-9.88681100
100.49999960,-10.10335000
100.99999959,-10.21038000
101.49999957,-10.19931000
101.99999956,-10.14149000
102.49999954,-10.03383000
102.99999953,-9.97846900
103.49999952,-9.97846900
103.99999950,-10.03629000
104.49999949,-10.15563000
104.99999947,-10.15563000
105.49999946,-10.03629000
105.99999944,-9.98154500
106.49999943,-9.99261800
106.99999942,-9.99507800
107.49999940,-9.99507800
107.99999939,-9.99753900
108.49999937,-10.00861000
108.99999936,-9.95632300
109.49999935,-9.84867000
109.99999933,-9.79330700
110.49999932,-9.79330700
110.99999930,-9.84867000
111.49999929,-9.95632300
111.99999927,-10.00861000
112.49999926,-9.99753900
112.99999925,-9.99753900
113.49999923,-10.00861000
113.99999922,-9.95632300
114.49999920,-9.84867000
114.99999919,-9.79884200
115.49999918,-9.82098900
115.99999916,-9.76562400
116.49999915,-9.63582600
116.99999913,-9.69119100
117.49999912,-9.92864100
117.99999911,-9.98092900
118.49999909,-9.84005800
118.99999908,-9.83452200
119.49999906,-9.95386200
119.99999905,-10.01169000
120.49999903,-10.01169000
120.99999902,-9.95632300
121.49999901,-9.84867000
121.99999899,-9.79638200
122.49999898,-9.80745600
122.99999896,-9.80437900
123.49999895,-9.78284900
123.99999894,-9.89234600
124.49999892,-10.13041000
124.99999891,-10.12795000
125.49999889,-9.87881400
125.99999888,-9.82652600
126.49999886,-9.97846900
126.99999885,-9.92864100
127.49999884,-9.69119100
127.99999882,-9.63336600
128.49999881,-9.75209100
128.99999879,-9.86466500
129.49999878,-9.97293300
129.99999877,-9.97047100
130.49999875,-9.85113100
130.99999874,-9.79330700
131.49999872,-9.79330700
131.99999871,-9.84867000
132.49999870,-9.95632300
132.99999868,-10.01415000
133.49999867,-10.02522000
133.99999865,-9.91510800
134.49999864,-9.68811500
134.99999862,-9.63582600
135.49999861,-9.76562400
135.99999860,-9.82098900
136.49999858,-9.79884200
136.99999857,-9.85420700
137.49999855,-9.98400600
137.99999854,-9.92618100
138.49999853,-9.67704200
138.99999851,-9.67150600
139.49999850,-9.89849900
139.99999848,-10.06398000
140.49999847,-10.16117000
140.99999845,-10.15810000
141.49999844,-10.04983000
141.99999843,-9.94279000
142.49999841,-9.84559500
142.99999840,-9.79084600
143.49999838,-9.77977300
143.99999837,-9.88988600
144.49999836,-10.11688000
144.99999834,-10.17163000
145.49999833,-10.05290000
145.99999831,-9.94033000
146.49999830,-9.83206100
146.99999829,-9.83452200
147.49999827,-9.95386200
147.99999826,-10.00861000
148.49999824,-9.99753900
148.99999823,-9.99507800
149.49999821,-9.99507800
149.99999820,-9.99507800
150.49999819,-9.99507800
150.99999817,-9.99507800
151.49999816,-9.99507800
151.99999814,-9.99507800
152.49999813,-9.99507800
152.99999812,-10.00062000
153.49999810,-10.02215000
153.99999809,-9.91510800
154.49999807,-9.68811500
154.99999806,-9.63336600
155.49999804,-9.75209100
155.99999803,-9.86466500
156.49999802,-9.97293300
156.99999800,-9.96739700
157.49999799,-9.83759800
157.99999797,-9.83759800
158.49999796,-9.96739700
158.99999795,-9.96739700
159.49999793,-9.83759800
159.99999792,-9.83759800
160.49999790,-9.96739700
160.99999789,-9.97600800
161.49999787,-9.87881400
161.99999786,-9.71087600
162.49999785,-9.47280900
162.99999783,-9.52509800
163.49999782,-9.86035800
163.99999780,-10.07751000
164.49999779,-10.16363000
164.99999778,-10.16117000
165.49999776,-10.06398000
165.99999775,-9.90157400
166.49999773,-9.68565500
166.99999772,-9.63336600
167.49999771,-9.75209100
167.99999769,-9.86220500
168.49999768,-9.95939900
168.99999766,-10.00861000
169.49999765,-9.99753900
169.99999763,-9.99507800
170.49999762,-9.99507800
170.99999761,-9.98954200
171.49999759,-9.96801100
171.99999758,-10.07751000
172.49999756,-10.31557000
172.99999755,-10.31557000
173.49999754,-10.07751000
173.99999752,-9.97047100
174.49999751,-10.00308000
174.99999749,-9.95386200
175.49999748,-9.83452200
175.99999746,-9.83452200
176.49999745,-9.95386200
176.99999744,-10.01415000
177.49999742,-10.02522000
177.99999741,-9.91510800
178.49999739,-9.68811500
178.99999738,-9.63336600
179.49999737,-9.75209100
179.99999735,-9.86220500
180.49999734,-9.95939900
180.99999732,-10.00861000
181.49999731,-9.99753900
181.99999730,-9.99507800
182.49999728,-9.99507800
182.99999727,-9.99261800
183.49999725,-9.98154500
183.99999724,-10.03937000
184.49999722,-10.16917000
184.99999721,-10.11380000
185.49999720,-9.87635300
185.99999718,-9.82098900
186.49999717,-9.95078800
186.99999715,-10.00861000
187.49999714,-9.99753900
187.99999713,-9.99753900
188.49999711,-10.00861000
188.99999710,-9.95632300
189.49999708,-9.84867000
189.99999707,-9.79330700
190.49999705,-9.79330700
190.99999704,-9.84867000
191.49999703,-9.95632300
191.99999701,-10.00861000
192.49999700,-9.99753900
192.99999698,-10.00062000
193.49999697,-10.02215000
193.99999696,-9.91510800
194.49999694,-9.68811500
194.99999693,-9.63890200
195.49999691,-9.77977300
195.99999690,-9.78531000
196.49999689,-9.66596900
196.99999687,-9.61122000
197.49999686,-9.62229300
197.99999684,-9.62229300
198.49999683,-9.61122000
198.99999681,-9.66043300
199.49999680,-9.75762700
199.99999679,-9.86466500
200.49999677,-9.97293300
200.99999676,-9.97293300
201.49999674,-9.86466500
201.99999673,-9.75516700
202.49999672,-9.64689900
202.99999670,-9.64382400
203.49999669,-9.74101800
203.99999667,-9.90649500
204.49999666,-10.13349000
204.99999664,-10.13041000
205.49999663,-9.89234600
205.99999662,-9.78284900
206.49999660,-9.80437900
206.99999659,-9.80745600
207.49999657,-9.79638200
207.99999656,-9.84867000
208.49999655,-9.95632300
208.99999653,-10.01415000
209.49999652,-10.02522000
209.99999650,-9.91264700
210.49999649,-9.67458200
210.99999648,-9.67704200
211.49999646,-9.92618100
211.99999645,-9.98092900
212.49999643,-9.84005800
212.99999642,-9.83759800
213.49999640,-9.96739700
213.99999639,-9.96739700
214.49999638,-9.83759800
214.99999636,-9.83452200
215.49999635,-9.95386200
215.99999633,-10.00615000
216.49999632,-9.98400600
216.99999631,-10.03629000
217.49999629,-10.15563000
217.99999628,-10.15563000
218.49999626,-10.03629000
218.99999625,-9.98154500
219.49999623,-9.99261800
219.99999622,-10.00062000
220.49999621,-10.02215000
220.99999619,-9.91510800
221.49999618,-9.68811500
221.99999616,-9.63582600
222.49999615,-9.76562400
222.99999614,-9.81791200
223.49999612,-9.78531000
223.99999611,-9.88988600
224.49999609,-10.11688000
224.99999608,-10.17470000
225.49999606,-10.06644000
225.99999605,-9.90403500
226.49999604,-9.69918700
226.99999602,-9.59215000
227.49999601,-9.59215000
227.99999599,-9.70718500
228.49999598,-9.94525100
228.99999597,-9.94279000
229.49999595,-9.69365100
229.99999594,-9.63582600
230.49999592,-9.76562400
230.99999591,-9.82098900
231.49999590,-9.79884200
231.99999588,-9.84867000
232.49999587,-9.95632300
232.99999585,-10.00861000
233.49999584,-9.99753900
233.99999582,-9.99507800
234.49999581,-9.99507800
234.99999580,-9.99507800
235.49999578,-9.99507800
235.99999577,-9.99753900
236.49999575,-10.00861000
236.99999574,-9.95632300
237.49999573,-9.84867000
237.99999571,-9.79638200
238.49999570,-9.80745600
238.99999568,-9.80991600
239.49999567,-9.80991600
239.99999565,-9.80745600
240.49999564,-9.79638200
240.99999563,-9.85420700
241.49999561,-9.98400600
241.99999560,-9.92618100
242.49999558,-9.67704200
242.99999557,-9.66904400
243.49999556,-9.88496500
243.99999554,-10.10765000
244.49999553,-10.33464000
244.99999551,-10.27436000
245.49999550,-9.91756900
245.99999549,-9.80745600
246.49999547,-9.94832700
246.99999546,-10.00861000
247.49999544,-9.99753900
247.99999543,-9.99261800
248.49999541,-9.98154500
248.99999540,-10.03629000
249.49999539,-10.15563000
249.99999537,-10.15810000
250.49999536,-10.04983000
250.99999534,-9.94033000
251.49999533,-9.83206100
251.99999532,-9.84005800
252.49999530,-9.98092900
252.99999529,-9.92864100
253.49999527,-9.69119100
253.99999526,-9.63582600
254.49999524,-9.76562400
254.99999523,-9.82344900
255.49999522,-9.81237700
255.99999520,-9.80991600
256.49999519,-9.80991600
256.99999517,-9.81791200
257.49999516,-9.85113100
257.99999515,-9.68872900
258.49999513,-9.34301200
258.99999512,-9.28211000
259.49999510,-9.49864600
259.99999509,-9.77300600
260.49999508,-10.09719000
260.99999506,-10.14702000
261.49999505,-9.90895600
261.99999503,-9.73855800
262.49999502,-9.63029000
262.99999500,-9.68811500
263.49999499,-9.91510800
263.99999498,-10.02215000
264.49999496,-10.00062000
264.99999495,-9.99753900
265.49999493,-10.00861000
265.99999492,-9.95632300
266.49999491,-9.84867000
266.99999489,-9.79084600
267.49999488,-9.77977300
267.99999486,-9.89542300
268.49999485,-10.14395000
268.99999483,-10.09166000
269.49999482,-9.74594000
269.99999481,-9.58661400
270.49999479,-9.63029000
270.99999478,-9.58353800
271.49999476,-9.46419700
271.99999475,-9.45866100
272.49999474,-9.55585600
272.99999472,-9.71825700
273.49999471,-9.93417800
273.99999469,-9.98400600
274.49999468,-9.85420700
274.99999466,-9.79330700
275.49999465,-9.79330700
275.99999464,-9.85420700
276.49999462,-9.98400600
276.99999461,-9.93171700
277.49999459,-9.70472400
277.99999458,-9.59461100
278.49999457,-9.60568300
278.99999455,-9.65797200
279.49999454,-9.74409400
279.99999452,-9.90342000
280.49999451,-10.11934000
280.99999450,-10.17163000
281.49999448,-10.05290000
281.99999447,-9.94586600
282.49999445,-9.85912800
282.99999444,-9.75516700
283.49999442,-9.64689900
